SAO MARTINHO DA SERRA EMBRACE-06 <007> 1 Min. Reported data

 DD MM YYYY  HH MM   D(Deg)  H(nT)   Z(nT)   I(Deg)   F(nT)

 07 01 2015  00 00  -14.4024 17995.3 -13508.3 -36.8939 22501.3
 07 01 2015  00 01  -14.4024 17995.4 -13508.5 -36.8940 22501.4
 07 01 2015  00 02  -14.4027 17995.6 -13508.6 -36.8940 22501.7
 07 01 2015  00 03  -14.4029 17996.1 -13508.7 -36.8936 22502.1
 07 01 2015  00 04  -14.4034 17996.5 -13508.8 -36.8931 22502.5
 07 01 2015  00 05  -14.4036 17997.0 -13508.9 -36.8925 22503.0
 07 01 2015  00 06  -14.4035 17997.5 -13509.0 -36.8919 22503.4
 07 01 2015  00 07  -14.4034 17998.1 -13509.0 -36.8911 22503.9
 07 01 2015  00 08  -14.4037 17998.2 -13509.0 -36.8908 22503.9
 07 01 2015  00 09  -14.4034 17998.2 -13508.9 -36.8907 22503.9
 07 01 2015  00 10  -14.4024 17998.5 -13508.9 -36.8904 22504.1
 07 01 2015  00 11  -14.4037 17998.3 -13508.9 -36.8905 22503.9
 07 01 2015  00 12  -14.4042 17997.8 -13508.7 -36.8909 22503.4
 07 01 2015  00 13  -14.4038 17997.5 -13508.7 -36.8914 22503.2
 07 01 2015  00 14  -14.4035 17997.3 -13508.8 -36.8918 22503.1
 07 01 2015  00 15  -14.4029 17997.1 -13508.8 -36.8922 22503.0
 07 01 2015  00 16  -14.4029 17997.1 -13508.9 -36.8925 22503.0
 07 01 2015  00 17  -14.4042 17996.8 -13508.9 -36.8929 22502.8
 07 01 2015  00 18  -14.4043 17996.4 -13508.9 -36.8935 22502.4
 07 01 2015  00 19  -14.4032 17996.4 -13508.9 -36.8934 22502.4
 07 01 2015  00 20  -14.4021 17996.9 -13509.2 -36.8932 22503.1
 07 01 2015  00 21  -14.4021 17997.6 -13509.4 -36.8926 22503.7
 07 01 2015  00 22  -14.4019 17998.5 -13509.4 -36.8914 22504.4
 07 01 2015  00 23  -14.4025 17999.0 -13509.5 -36.8908 22504.9
 07 01 2015  00 24  -14.4025 17999.3 -13509.4 -36.8900 22505.1
 07 01 2015  00 25  -14.4022 17999.8 -13509.4 -36.8893 22505.5
 07 01 2015  00 26  -14.4022 18000.1 -13509.3 -36.8887 22505.7
 07 01 2015  00 27  -14.4022 18000.1 -13509.3 -36.8885 22505.6
 07 01 2015  00 28  -14.4019 18000.2 -13509.2 -36.8881 22505.7
 07 01 2015  00 29  -14.4017 18000.2 -13509.1 -36.8880 22505.7
 07 01 2015  00 30  -14.4016 18000.1 -13509.1 -36.8882 22505.5
 07 01 2015  00 31  -14.4016 17999.7 -13509.0 -36.8885 22505.2
 07 01 2015  00 32  -14.4022 17999.5 -13508.9 -36.8887 22505.0
 07 01 2015  00 33  -14.4028 17999.5 -13509.0 -36.8888 22505.0
 07 01 2015  00 34  -14.4031 17999.6 -13509.0 -36.8888 22505.0
 07 01 2015  00 35  -14.4031 17999.6 -13509.1 -36.8890 22505.1
 07 01 2015  00 36  -14.4034 17999.6 -13509.1 -36.8889 22505.1
 07 01 2015  00 37  -14.4036 17999.5 -13509.1 -36.8889 22505.1
 07 01 2015  00 38  -14.4033 17999.6 -13509.1 -36.8890 22505.2
 07 01 2015  00 39  -14.4033 17999.7 -13509.1 -36.8887 22505.2
 07 01 2015  00 40  -14.4036 17999.7 -13509.0 -36.8886 22505.2
 07 01 2015  00 41  -14.4039 17999.6 -13509.0 -36.8887 22505.1
 07 01 2015  00 42  -14.4041 17999.6 -13509.0 -36.8887 22505.1
 07 01 2015  00 43  -14.4043 17999.6 -13509.0 -36.8888 22505.1
 07 01 2015  00 44  -14.4043 17999.6 -13509.0 -36.8888 22505.1
 07 01 2015  00 45  -14.4045 17999.5 -13508.9 -36.8888 22504.9
 07 01 2015  00 46  -14.4043 17999.5 -13508.9 -36.8888 22505.0
 07 01 2015  00 47  -14.4043 17999.6 -13508.9 -36.8886 22505.1
 07 01 2015  00 48  -14.4048 17999.5 -13508.9 -36.8888 22505.0
 07 01 2015  00 49  -14.4056 17998.9 -13508.9 -36.8896 22504.4
 07 01 2015  00 50  -14.4059 17998.2 -13508.7 -36.8903 22503.8
 07 01 2015  00 51  -14.4058 17997.9 -13508.7 -36.8908 22503.6
 07 01 2015  00 52  -14.4057 17998.2 -13508.9 -36.8907 22503.9
 07 01 2015  00 53  -14.4059 17998.8 -13509.1 -36.8901 22504.5
 07 01 2015  00 54  -14.4056 17999.5 -13509.3 -36.8895 22505.2
 07 01 2015  00 55  -14.4059 17999.7 -13509.1 -36.8889 22505.2
 07 01 2015  00 56  -14.4066 17999.5 -13509.2 -36.8892 22505.1
 07 01 2015  00 57  -14.4070 17999.4 -13509.0 -36.8890 22504.9
 07 01 2015  00 58  -14.4074 17999.1 -13509.0 -36.8895 22504.7
 07 01 2015  00 59  -14.4075 17998.8 -13509.0 -36.8899 22504.4
 07 01 2015  01 00  -14.4049 18000.0 -13509.2 -36.8886 22505.6
 07 01 2015  01 01  -14.4041 18002.3 -13509.7 -36.8859 22507.7
 07 01 2015  01 02  -14.4049 18004.0 -13509.8 -36.8836 22509.1
 07 01 2015  01 03  -14.4046 18005.8 -13509.9 -36.8811 22510.6
 07 01 2015  01 04  -14.4048 18006.7 -13509.7 -36.8794 22511.2
 07 01 2015  01 05  -14.4042 18006.6 -13509.3 -36.8788 22510.8
 07 01 2015  01 06  -14.4028 18005.9 -13509.1 -36.8793 22510.1
 07 01 2015  01 07  -14.4014 18005.1 -13508.7 -36.8798 22509.3
 07 01 2015  01 08  -14.4003 18004.6 -13508.6 -36.8803 22508.8
 07 01 2015  01 09  -14.3997 18004.2 -13508.7 -36.8810 22508.6
 07 01 2015  01 10  -14.3993 18004.5 -13508.9 -36.8809 22508.9
 07 01 2015  01 11  -14.3999 18004.8 -13509.0 -36.8807 22509.2
 07 01 2015  01 12  -14.4006 18004.7 -13508.9 -36.8809 22509.1
 07 01 2015  01 13  -14.4020 18004.0 -13508.9 -36.8818 22508.5
 07 01 2015  01 14  -14.4030 18002.0 -13508.5 -36.8840 22506.8
 07 01 2015  01 15  -14.4018 18000.0 -13508.3 -36.8867 22505.0
 07 01 2015  01 16  -14.4010 17998.8 -13508.3 -36.8887 22504.0
 07 01 2015  01 17  -14.4018 17998.2 -13508.7 -36.8904 22503.8
 07 01 2015  01 18  -14.4033 17997.9 -13509.1 -36.8914 22503.8
 07 01 2015  01 19  -14.4053 17997.8 -13509.4 -36.8923 22503.8
 07 01 2015  01 20  -14.4055 17997.3 -13509.4 -36.8930 22503.5
 07 01 2015  01 21  -14.4032 17998.5 -13509.8 -36.8921 22504.7
 07 01 2015  01 22  -14.4034 18001.6 -13510.6 -36.8889 22507.6
 07 01 2015  01 23  -14.4058 18004.6 -13511.0 -36.8851 22510.3
 07 01 2015  01 24  -14.4064 18005.3 -13510.8 -36.8836 22510.7
 07 01 2015  01 25  -14.4028 18005.5 -13510.4 -36.8825 22510.7
 07 01 2015  01 26  -14.4000 18006.1 -13510.4 -36.8816 22511.1
 07 01 2015  01 27  -14.3984 18006.7 -13510.3 -36.8806 22511.5
 07 01 2015  01 28  -14.3981 18007.2 -13510.1 -36.8794 22511.9
 07 01 2015  01 29  -14.3982 18007.9 -13510.2 -36.8786 22512.4
 07 01 2015  01 30  -14.3980 18008.2 -13510.2 -36.8780 22512.7
 07 01 2015  01 31  -14.3979 18008.2 -13509.9 -36.8774 22512.5
 07 01 2015  01 32  -14.3982 18007.7 -13509.7 -36.8778 22511.9
 07 01 2015  01 33  -14.3970 18007.7 -13509.7 -36.8779 22512.0
 07 01 2015  01 34  -14.3941 18009.6 -13510.3 -36.8761 22513.8
 07 01 2015  01 35  -14.3921 18011.9 -13510.6 -36.8732 22515.9
 07 01 2015  01 36  -14.3921 18013.3 -13510.7 -36.8712 22517.1
 07 01 2015  01 37  -14.3920 18014.2 -13510.5 -36.8695 22517.6
 07 01 2015  01 38  -14.3917 18014.5 -13510.3 -36.8687 22517.7
 07 01 2015  01 39  -14.3913 18014.1 -13509.9 -36.8685 22517.2
 07 01 2015  01 40  -14.3908 18013.3 -13509.7 -36.8691 22516.4
 07 01 2015  01 41  -14.3901 18012.4 -13509.5 -36.8702 22515.6
 07 01 2015  01 42  -14.3892 18011.5 -13509.4 -36.8715 22514.8
 07 01 2015  01 43  -14.3887 18010.8 -13509.3 -36.8723 22514.3
 07 01 2015  01 44  -14.3880 18010.3 -13509.5 -36.8735 22514.0
 07 01 2015  01 45  -14.3878 18010.0 -13509.6 -36.8741 22513.7
 07 01 2015  01 46  -14.3882 18009.8 -13509.6 -36.8743 22513.6
 07 01 2015  01 47  -14.3884 18009.8 -13509.8 -36.8749 22513.7
 07 01 2015  01 48  -14.3887 18009.6 -13509.9 -36.8754 22513.6
 07 01 2015  01 49  -14.3891 18009.0 -13509.9 -36.8762 22513.1
 07 01 2015  01 50  -14.3881 18009.2 -13510.1 -36.8763 22513.4
 07 01 2015  01 51  -14.3875 18009.5 -13510.2 -36.8761 22513.7
 07 01 2015  01 52  -14.3890 18009.0 -13510.2 -36.8768 22513.3
 07 01 2015  01 53  -14.3901 18008.4 -13510.2 -36.8778 22512.9
 07 01 2015  01 54  -14.3909 18007.2 -13510.1 -36.8793 22511.8
 07 01 2015  01 55  -14.3908 18006.0 -13510.0 -36.8809 22510.8
 07 01 2015  01 56  -14.3906 18005.7 -13510.1 -36.8817 22510.6
 07 01 2015  01 57  -14.3913 18005.8 -13510.5 -36.8823 22510.9
 07 01 2015  01 58  -14.3916 18006.0 -13510.7 -36.8824 22511.2
 07 01 2015  01 59  -14.3917 18006.2 -13510.9 -36.8825 22511.5
 07 01 2015  02 00  -14.3914 18006.5 -13510.9 -36.8822 22511.7
 07 01 2015  02 01  -14.3912 18006.7 -13511.2 -36.8824 22512.1
 07 01 2015  02 02  -14.3913 18006.9 -13511.2 -36.8821 22512.2
 07 01 2015  02 03  -14.3921 18006.8 -13511.2 -36.8823 22512.1
 07 01 2015  02 04  -14.3930 18006.6 -13511.2 -36.8826 22512.0
 07 01 2015  02 05  -14.3930 18006.5 -13511.2 -36.8827 22512.0
 07 01 2015  02 06  -14.3928 18006.8 -13511.3 -36.8825 22512.3
 07 01 2015  02 07  -14.3928 18007.3 -13511.5 -36.8822 22512.7
 07 01 2015  02 08  -14.3928 18007.7 -13511.6 -36.8818 22513.1
 07 01 2015  02 09  -14.3928 18007.8 -13511.4 -36.8812 22513.1
 07 01 2015  02 10  -14.3924 18007.7 -13511.4 -36.8814 22513.0
 07 01 2015  02 11  -14.3918 18007.7 -13511.5 -36.8816 22513.1
 07 01 2015  02 12  -14.3914 18007.8 -13511.6 -36.8816 22513.1
 07 01 2015  02 13  -14.3911 18008.0 -13511.6 -36.8813 22513.4
 07 01 2015  02 14  -14.3910 18008.5 -13511.7 -36.8807 22513.8
 07 01 2015  02 15  -14.3905 18008.7 -13511.8 -36.8805 22514.0
 07 01 2015  02 16  -14.3906 18008.5 -13511.7 -36.8805 22513.8
 07 01 2015  02 17  -14.3907 18008.4 -13511.7 -36.8808 22513.7
 07 01 2015  02 18  -14.3904 18008.4 -13511.7 -36.8808 22513.8
 07 01 2015  02 19  -14.3908 18008.3 -13511.8 -36.8810 22513.7
 07 01 2015  02 20  -14.3912 18008.2 -13511.6 -36.8808 22513.5
 07 01 2015  02 21  -14.3915 18008.1 -13511.6 -36.8811 22513.5
 07 01 2015  02 22  -14.3918 18008.1 -13511.7 -36.8813 22513.5
 07 01 2015  02 23  -14.3920 18008.1 -13511.8 -36.8815 22513.5
 07 01 2015  02 24  -14.3918 18008.2 -13511.8 -36.8813 22513.6
 07 01 2015  02 25  -14.3918 18008.2 -13511.9 -36.8815 22513.6
 07 01 2015  02 26  -14.3915 18008.0 -13511.8 -36.8817 22513.5
 07 01 2015  02 27  -14.3915 18008.0 -13511.9 -36.8819 22513.6
 07 01 2015  02 28  -14.3920 18007.7 -13511.9 -36.8824 22513.3
 07 01 2015  02 29  -14.3932 18007.1 -13511.9 -36.8833 22512.8
 07 01 2015  02 30  -14.3946 18006.2 -13511.6 -36.8841 22511.9
 07 01 2015  02 31  -14.3944 18006.1 -13511.8 -36.8846 22512.0
 07 01 2015  02 32  -14.3936 18006.4 -13512.1 -36.8845 22512.4
 07 01 2015  02 33  -14.3940 18006.7 -13512.2 -36.8844 22512.7
 07 01 2015  02 34  -14.3941 18007.0 -13512.3 -36.8842 22513.0
 07 01 2015  02 35  -14.3936 18007.5 -13512.4 -36.8837 22513.4
 07 01 2015  02 36  -14.3936 18007.4 -13512.5 -36.8839 22513.4
 07 01 2015  02 37  -14.3938 18007.3 -13512.5 -36.8840 22513.4
 07 01 2015  02 38  -14.3949 18006.8 -13512.3 -36.8845 22512.8
 07 01 2015  02 39  -14.3957 18006.4 -13512.2 -36.8848 22512.4
 07 01 2015  02 40  -14.3961 18006.4 -13512.3 -36.8852 22512.5
 07 01 2015  02 41  -14.3967 18006.3 -13512.2 -36.8852 22512.4
 07 01 2015  02 42  -14.3968 18006.3 -13512.5 -36.8855 22512.5
 07 01 2015  02 43  -14.3963 18006.5 -13512.5 -36.8853 22512.7
 07 01 2015  02 44  -14.3962 18007.0 -13512.6 -36.8849 22513.1
 07 01 2015  02 45  -14.3965 18007.3 -13512.7 -36.8846 22513.4
 07 01 2015  02 46  -14.3966 18007.5 -13512.7 -36.8842 22513.7
 07 01 2015  02 47  -14.3963 18007.8 -13512.8 -36.8840 22513.9
 07 01 2015  02 48  -14.3965 18007.7 -13512.7 -36.8840 22513.8
 07 01 2015  02 49  -14.3966 18007.8 -13512.7 -36.8838 22513.9
 07 01 2015  02 50  -14.3973 18007.9 -13512.7 -36.8837 22513.9
 07 01 2015  02 51  -14.3980 18007.8 -13512.7 -36.8838 22513.9
 07 01 2015  02 52  -14.3981 18007.9 -13512.7 -36.8837 22513.9
 07 01 2015  02 53  -14.3986 18008.0 -13512.7 -36.8836 22514.0
 07 01 2015  02 54  -14.3993 18007.7 -13512.7 -36.8838 22513.8
 07 01 2015  02 55  -14.3996 18007.5 -13512.7 -36.8842 22513.6
 07 01 2015  02 56  -14.4000 18007.2 -13512.7 -36.8846 22513.4
 07 01 2015  02 57  -14.4001 18006.9 -13512.6 -36.8849 22513.1
 07 01 2015  02 58  -14.4002 18006.4 -13512.6 -36.8857 22512.7
 07 01 2015  02 59  -14.4002 18006.1 -13512.5 -36.8860 22512.4
 07 01 2015  03 00  -14.4007 18006.0 -13512.7 -36.8866 22512.4
 07 01 2015  03 01  -14.4010 18006.1 -13512.8 -36.8865 22512.5
 07 01 2015  03 02  -14.4015 18006.3 -13512.9 -36.8865 22512.8
 07 01 2015  03 03  -14.4020 18006.3 -13513.1 -36.8868 22512.9
 07 01 2015  03 04  -14.4021 18006.3 -13513.0 -36.8867 22512.8
 07 01 2015  03 05  -14.4020 18006.6 -13513.0 -36.8863 22513.1
 07 01 2015  03 06  -14.4018 18007.0 -13513.3 -36.8861 22513.6
 07 01 2015  03 07  -14.4017 18007.4 -13513.4 -36.8856 22514.0
 07 01 2015  03 08  -14.4020 18007.5 -13513.3 -36.8854 22514.0
 07 01 2015  03 09  -14.4024 18007.6 -13513.3 -36.8852 22514.1
 07 01 2015  03 10  -14.4027 18007.2 -13513.1 -36.8855 22513.6
 07 01 2015  03 11  -14.4031 18006.3 -13513.0 -36.8866 22512.8
 07 01 2015  03 12  -14.4038 18005.1 -13512.8 -36.8881 22511.8
 07 01 2015  03 13  -14.4044 18003.9 -13512.7 -36.8898 22510.8
 07 01 2015  03 14  -14.4047 18003.3 -13512.9 -36.8909 22510.4
 07 01 2015  03 15  -14.4052 18003.6 -13513.0 -36.8908 22510.7
 07 01 2015  03 16  -14.4057 18004.4 -13513.5 -36.8907 22511.6
 07 01 2015  03 17  -14.4053 18005.6 -13513.7 -36.8893 22512.7
 07 01 2015  03 18  -14.4051 18006.5 -13513.9 -36.8881 22513.5
 07 01 2015  03 19  -14.4050 18007.0 -13513.9 -36.8875 22513.9
 07 01 2015  03 20  -14.4046 18007.7 -13514.0 -36.8865 22514.5
 07 01 2015  03 21  -14.4041 18007.5 -13513.7 -36.8861 22514.2
 07 01 2015  03 22  -14.4043 18006.7 -13513.5 -36.8870 22513.4
 07 01 2015  03 23  -14.4049 18004.8 -13513.1 -36.8891 22511.7
 07 01 2015  03 24  -14.4056 18002.8 -13512.9 -36.8918 22510.0
 07 01 2015  03 25  -14.4077 18000.9 -13512.7 -36.8944 22508.3
 07 01 2015  03 26  -14.4093 17999.2 -13512.8 -36.8970 22507.0
 07 01 2015  03 27  -14.4105 17998.5 -13513.0 -36.8986 22506.7
 07 01 2015  03 28  -14.4112 17998.6 -13513.3 -36.8992 22506.8
 07 01 2015  03 29  -14.4114 17999.8 -13513.8 -36.8982 22508.1
 07 01 2015  03 30  -14.4111 18001.5 -13514.4 -36.8969 22509.9
 07 01 2015  03 31  -14.4105 18002.5 -13514.5 -36.8956 22510.7
 07 01 2015  03 32  -14.4098 18002.6 -13514.4 -36.8953 22510.7
 07 01 2015  03 33  -14.4095 18002.3 -13514.2 -36.8953 22510.4
 07 01 2015  03 34  -14.4093 18002.0 -13514.1 -36.8954 22510.1
 07 01 2015  03 35  -14.4099 18001.8 -13514.0 -36.8956 22509.8
 07 01 2015  03 36  -14.4106 18001.6 -13514.1 -36.8961 22509.7
 07 01 2015  03 37  -14.4116 18001.6 -13514.1 -36.8961 22509.8
 07 01 2015  03 38  -14.4124 18001.7 -13514.1 -36.8961 22509.8
 07 01 2015  03 39  -14.4124 18001.8 -13514.2 -36.8960 22510.0
 07 01 2015  03 40  -14.4125 18002.2 -13514.3 -36.8956 22510.3
 07 01 2015  03 41  -14.4124 18002.4 -13514.3 -36.8952 22510.5
 07 01 2015  03 42  -14.4126 18002.4 -13514.3 -36.8951 22510.5
 07 01 2015  03 43  -14.4128 18002.4 -13514.3 -36.8952 22510.5
 07 01 2015  03 44  -14.4129 18002.7 -13514.2 -36.8947 22510.7
 07 01 2015  03 45  -14.4133 18002.9 -13514.1 -36.8942 22510.8
 07 01 2015  03 46  -14.4139 18003.0 -13514.3 -36.8943 22511.0
 07 01 2015  03 47  -14.4143 18003.2 -13514.1 -36.8938 22511.0
 07 01 2015  03 48  -14.4144 18003.2 -13514.1 -36.8936 22511.0
 07 01 2015  03 49  -14.4144 18002.9 -13514.0 -36.8938 22510.7
 07 01 2015  03 50  -14.4142 18003.3 -13514.0 -36.8934 22511.0
 07 01 2015  03 51  -14.4141 18003.5 -13514.1 -36.8931 22511.3
 07 01 2015  03 52  -14.4142 18004.0 -13514.1 -36.8923 22511.7
 07 01 2015  03 53  -14.4145 18004.1 -13514.0 -36.8920 22511.6
 07 01 2015  03 54  -14.4141 18004.4 -13514.1 -36.8919 22512.0
 07 01 2015  03 55  -14.4139 18004.2 -13514.0 -36.8918 22511.8
 07 01 2015  03 56  -14.4135 18004.1 -13513.8 -36.8917 22511.6
 07 01 2015  03 57  -14.4131 18004.1 -13513.9 -36.8919 22511.6
 07 01 2015  03 58  -14.4132 18004.0 -13513.8 -36.8917 22511.5
 07 01 2015  03 59  -14.4128 18004.5 -13513.9 -36.8911 22512.0
 07 01 2015  04 00  -14.4134 18004.2 -13513.7 -36.8913 22511.6
 07 01 2015  04 01  -14.4136 18004.3 -13513.8 -36.8912 22511.7
 07 01 2015  04 02  -14.4137 18004.2 -13513.6 -36.8912 22511.5
 07 01 2015  04 03  -14.4144 18004.0 -13513.6 -36.8913 22511.4
 07 01 2015  04 04  -14.4146 18004.3 -13513.7 -36.8910 22511.6
 07 01 2015  04 05  -14.4156 18004.2 -13513.7 -36.8912 22511.6
 07 01 2015  04 06  -14.4158 18004.8 -13513.7 -36.8904 22512.1
 07 01 2015  04 07  -14.4164 18004.8 -13513.6 -36.8903 22512.0
 07 01 2015  04 08  -14.4167 18004.9 -13513.5 -36.8899 22512.0
 07 01 2015  04 09  -14.4170 18005.2 -13513.7 -36.8898 22512.4
 07 01 2015  04 10  -14.4173 18005.8 -13513.8 -36.8890 22512.9
 07 01 2015  04 11  -14.4175 18006.6 -13513.8 -36.8879 22513.6
 07 01 2015  04 12  -14.4178 18007.1 -13513.8 -36.8870 22513.9
 07 01 2015  04 13  -14.4181 18007.4 -13513.7 -36.8864 22514.1
 07 01 2015  04 14  -14.4185 18007.1 -13513.5 -36.8865 22513.8
 07 01 2015  04 15  -14.4191 18006.6 -13513.3 -36.8868 22513.2
 07 01 2015  04 16  -14.4196 18006.3 -13513.2 -36.8871 22512.9
 07 01 2015  04 17  -14.4200 18006.1 -13513.2 -36.8873 22512.8
 07 01 2015  04 18  -14.4205 18005.9 -13513.2 -36.8877 22512.7
 07 01 2015  04 19  -14.4210 18006.2 -13513.2 -36.8873 22512.9
 07 01 2015  04 20  -14.4210 18006.9 -13513.3 -36.8865 22513.5
 07 01 2015  04 21  -14.4210 18007.3 -13513.4 -36.8858 22513.9
 07 01 2015  04 22  -14.4212 18007.6 -13513.4 -36.8855 22514.1
 07 01 2015  04 23  -14.4216 18007.9 -13513.4 -36.8851 22514.4
 07 01 2015  04 24  -14.4220 18007.5 -13513.2 -36.8852 22514.0
 07 01 2015  04 25  -14.4219 18007.6 -13513.0 -36.8847 22513.8
 07 01 2015  04 26  -14.4220 18007.7 -13513.1 -36.8848 22514.0
 07 01 2015  04 27  -14.4219 18008.1 -13513.2 -36.8842 22514.4
 07 01 2015  04 28  -14.4214 18008.8 -13513.2 -36.8832 22514.9
 07 01 2015  04 29  -14.4212 18008.8 -13513.1 -36.8830 22514.9
 07 01 2015  04 30  -14.4208 18009.1 -13513.0 -36.8824 22515.1
 07 01 2015  04 31  -14.4203 18009.5 -13513.0 -36.8817 22515.4
 07 01 2015  04 32  -14.4199 18009.7 -13513.0 -36.8814 22515.5
 07 01 2015  04 33  -14.4196 18009.8 -13513.0 -36.8814 22515.6
 07 01 2015  04 34  -14.4193 18010.1 -13513.0 -36.8809 22515.9
 07 01 2015  04 35  -14.4194 18010.1 -13512.9 -36.8806 22515.8
 07 01 2015  04 36  -14.4195 18010.1 -13512.9 -36.8805 22515.8
 07 01 2015  04 37  -14.4197 18010.1 -13512.8 -36.8804 22515.8
 07 01 2015  04 38  -14.4197 18009.9 -13512.6 -36.8804 22515.5
 07 01 2015  04 39  -14.4196 18009.7 -13512.6 -36.8806 22515.3
 07 01 2015  04 40  -14.4198 18009.5 -13512.5 -36.8809 22515.1
 07 01 2015  04 41  -14.4200 18009.2 -13512.5 -36.8814 22514.9
 07 01 2015  04 42  -14.4202 18008.8 -13512.4 -36.8816 22514.5
 07 01 2015  04 43  -14.4203 18008.8 -13512.6 -36.8820 22514.5
 07 01 2015  04 44  -14.4207 18008.8 -13512.5 -36.8820 22514.5
 07 01 2015  04 45  -14.4210 18008.9 -13512.6 -36.8820 22514.7
 07 01 2015  04 46  -14.4213 18009.0 -13512.7 -36.8819 22514.8
 07 01 2015  04 47  -14.4214 18009.3 -13512.6 -36.8813 22515.0
 07 01 2015  04 48  -14.4214 18009.6 -13512.6 -36.8807 22515.2
 07 01 2015  04 49  -14.4213 18009.8 -13512.7 -36.8807 22515.5
 07 01 2015  04 50  -14.4211 18009.9 -13512.7 -36.8806 22515.6
 07 01 2015  04 51  -14.4208 18010.0 -13512.6 -36.8803 22515.5
 07 01 2015  04 52  -14.4207 18009.9 -13512.7 -36.8804 22515.5
 07 01 2015  04 53  -14.4206 18009.7 -13512.5 -36.8804 22515.3
 07 01 2015  04 54  -14.4207 18009.7 -13512.6 -36.8806 22515.3
 07 01 2015  04 55  -14.4209 18009.5 -13512.4 -36.8806 22515.1
 07 01 2015  04 56  -14.4212 18009.5 -13512.5 -36.8806 22515.1
 07 01 2015  04 57  -14.4213 18009.4 -13512.5 -36.8809 22515.0
 07 01 2015  04 58  -14.4213 18009.1 -13512.5 -36.8812 22514.8
 07 01 2015  04 59  -14.4213 18009.1 -13512.5 -36.8814 22514.8
 07 01 2015  05 00  -14.4216 18008.7 -13512.3 -36.8816 22514.4
 07 01 2015  05 01  -14.4218 18008.5 -13512.5 -36.8822 22514.3
 07 01 2015  05 02  -14.4222 18008.5 -13512.5 -36.8824 22514.3
 07 01 2015  05 03  -14.4221 18008.5 -13512.6 -36.8826 22514.3
 07 01 2015  05 04  -14.4221 18008.5 -13512.4 -36.8822 22514.2
 07 01 2015  05 05  -14.4221 18008.5 -13512.3 -36.8820 22514.2
 07 01 2015  05 06  -14.4221 18008.5 -13512.5 -36.8823 22514.4
 07 01 2015  05 07  -14.4222 18008.7 -13512.4 -36.8818 22514.4
 07 01 2015  05 08  -14.4222 18008.8 -13512.6 -36.8821 22514.6
 07 01 2015  05 09  -14.4221 18008.7 -13512.5 -36.8820 22514.5
 07 01 2015  05 10  -14.4220 18008.4 -13512.4 -36.8822 22514.2
 07 01 2015  05 11  -14.4219 18008.1 -13512.4 -36.8827 22513.9
 07 01 2015  05 12  -14.4217 18008.0 -13512.5 -36.8829 22513.9
 07 01 2015  05 13  -14.4218 18008.1 -13512.5 -36.8828 22514.0
 07 01 2015  05 14  -14.4219 18008.3 -13512.6 -36.8827 22514.2
 07 01 2015  05 15  -14.4218 18008.5 -13512.6 -36.8825 22514.4
 07 01 2015  05 16  -14.4215 18008.7 -13512.6 -36.8822 22514.6
 07 01 2015  05 17  -14.4211 18008.9 -13512.7 -36.8820 22514.7
 07 01 2015  05 18  -14.4210 18009.0 -13512.6 -36.8817 22514.8
 07 01 2015  05 19  -14.4206 18009.0 -13512.7 -36.8818 22514.8
 07 01 2015  05 20  -14.4204 18009.1 -13512.5 -36.8815 22514.8
 07 01 2015  05 21  -14.4201 18009.1 -13512.6 -36.8814 22514.8
 07 01 2015  05 22  -14.4198 18009.1 -13512.6 -36.8815 22514.8
 07 01 2015  05 23  -14.4191 18009.1 -13512.5 -36.8815 22514.8
 07 01 2015  05 24  -14.4186 18009.1 -13512.5 -36.8814 22514.8
 07 01 2015  05 25  -14.4182 18009.4 -13512.6 -36.8812 22515.1
 07 01 2015  05 26  -14.4178 18010.0 -13512.7 -36.8804 22515.6
 07 01 2015  05 27  -14.4177 18010.3 -13512.6 -36.8798 22515.8
 07 01 2015  05 28  -14.4176 18010.2 -13512.7 -36.8801 22515.8
 07 01 2015  05 29  -14.4176 18010.2 -13512.5 -36.8798 22515.6
 07 01 2015  05 30  -14.4174 18010.4 -13512.6 -36.8795 22515.9
 07 01 2015  05 31  -14.4175 18010.7 -13512.6 -36.8790 22516.1
 07 01 2015  05 32  -14.4174 18010.8 -13512.5 -36.8788 22516.1
 07 01 2015  05 33  -14.4177 18010.5 -13512.4 -36.8791 22515.9
 07 01 2015  05 34  -14.4178 18010.2 -13512.4 -36.8794 22515.6
 07 01 2015  05 35  -14.4183 18009.8 -13512.1 -36.8796 22515.1
 07 01 2015  05 36  -14.4187 18009.7 -13512.1 -36.8797 22515.0
 07 01 2015  05 37  -14.4193 18009.6 -13512.2 -36.8800 22515.0
 07 01 2015  05 38  -14.4196 18009.7 -13512.2 -36.8798 22515.1
 07 01 2015  05 39  -14.4202 18009.3 -13512.1 -36.8803 22514.8
 07 01 2015  05 40  -14.4202 18009.1 -13512.1 -36.8806 22514.5
 07 01 2015  05 41  -14.4207 18008.8 -13512.2 -36.8813 22514.4
 07 01 2015  05 42  -14.4209 18008.9 -13512.2 -36.8811 22514.4
 07 01 2015  05 43  -14.4212 18009.0 -13512.3 -36.8811 22514.6
 07 01 2015  05 44  -14.4212 18008.8 -13512.3 -36.8814 22514.4
 07 01 2015  05 45  -14.4212 18008.8 -13512.2 -36.8813 22514.4
 07 01 2015  05 46  -14.4209 18009.0 -13512.1 -36.8807 22514.5
 07 01 2015  05 47  -14.4205 18008.9 -13512.2 -36.8811 22514.5
 07 01 2015  05 48  -14.4206 18008.4 -13512.2 -36.8818 22514.0
 07 01 2015  05 49  -14.4209 18007.8 -13512.0 -36.8824 22513.5
 07 01 2015  05 50  -14.4214 18007.7 -13512.0 -36.8825 22513.4
 07 01 2015  05 51  -14.4218 18007.8 -13512.3 -36.8829 22513.6
 07 01 2015  05 52  -14.4222 18008.0 -13512.3 -36.8827 22513.8
 07 01 2015  05 53  -14.4227 18008.0 -13512.3 -36.8826 22513.8
 07 01 2015  05 54  -14.4231 18007.9 -13512.3 -36.8829 22513.7
 07 01 2015  05 55  -14.4228 18008.2 -13512.4 -36.8825 22514.0
 07 01 2015  05 56  -14.4226 18008.8 -13512.6 -36.8820 22514.5
 07 01 2015  05 57  -14.4219 18009.5 -13512.6 -36.8810 22515.1
 07 01 2015  05 58  -14.4210 18010.1 -13512.6 -36.8800 22515.6
 07 01 2015  05 59  -14.4205 18010.4 -13512.5 -36.8794 22515.8
 07 01 2015  06 00  -14.4203 18010.6 -13512.5 -36.8791 22516.0
 07 01 2015  06 01  -14.4203 18010.7 -13512.4 -36.8786 22516.0
 07 01 2015  06 02  -14.4200 18010.9 -13512.4 -36.8784 22516.2
 07 01 2015  06 03  -14.4198 18011.0 -13512.3 -36.8781 22516.2
 07 01 2015  06 04  -14.4198 18010.7 -13512.2 -36.8782 22515.9
 07 01 2015  06 05  -14.4203 18010.5 -13512.1 -36.8784 22515.7
 07 01 2015  06 06  -14.4206 18010.6 -13512.1 -36.8783 22515.8
 07 01 2015  06 07  -14.4202 18010.0 -13512.0 -36.8789 22515.2
 07 01 2015  06 08  -14.4210 18009.4 -13511.9 -36.8797 22514.6
 07 01 2015  06 09  -14.4213 18009.0 -13511.9 -36.8803 22514.3
 07 01 2015  06 10  -14.4212 18008.5 -13511.9 -36.8809 22513.9
 07 01 2015  06 11  -14.4225 18007.8 -13511.8 -36.8819 22513.3
 07 01 2015  06 12  -14.4234 18007.2 -13511.8 -36.8828 22512.9
 07 01 2015  06 13  -14.4249 18007.2 -13512.0 -36.8832 22512.9
 07 01 2015  06 14  -14.4258 18008.9 -13512.4 -36.8815 22514.6
 07 01 2015  06 15  -14.4236 18011.7 -13513.0 -36.8783 22517.2
 07 01 2015  06 16  -14.4222 18013.4 -13513.1 -36.8760 22518.5
 07 01 2015  06 17  -14.4216 18020.9 -13514.4 -36.8672 22525.3
 07 01 2015  06 18  -14.4122 18029.1 -13515.3 -36.8565 22532.4
 07 01 2015  06 19  -14.4060 18031.8 -13514.6 -36.8510 22534.2
 07 01 2015  06 20  -14.4036 18030.0 -13513.0 -36.8504 22531.8
 07 01 2015  06 21  -14.4033 18026.7 -13511.5 -36.8525 22528.3
 07 01 2015  06 22  -14.4054 18024.1 -13510.7 -36.8548 22525.7
 07 01 2015  06 23  -14.4082 18022.1 -13510.3 -36.8570 22523.9
 07 01 2015  06 24  -14.4110 18021.0 -13510.2 -36.8586 22522.9
 07 01 2015  06 25  -14.4138 18020.6 -13510.3 -36.8594 22522.7
 07 01 2015  06 26  -14.4165 18020.6 -13510.6 -36.8599 22522.9
 07 01 2015  06 27  -14.4180 18020.5 -13510.6 -36.8602 22522.8
 07 01 2015  06 28  -14.4201 18019.1 -13510.3 -36.8617 22521.4
 07 01 2015  06 29  -14.4225 18019.8 -13510.8 -36.8616 22522.3
 07 01 2015  06 30  -14.4221 18022.0 -13511.4 -36.8594 22524.4
 07 01 2015  06 31  -14.4215 18027.0 -13512.3 -36.8537 22528.9
 07 01 2015  06 32  -14.4178 18031.5 -13512.8 -36.8478 22532.8
 07 01 2015  06 33  -14.4161 18032.8 -13512.4 -36.8451 22533.7
 07 01 2015  06 34  -14.4154 18031.8 -13511.5 -36.8447 22532.4
 07 01 2015  06 35  -14.4159 18029.1 -13510.5 -36.8468 22529.6
 07 01 2015  06 36  -14.4176 18027.0 -13510.0 -36.8489 22527.6
 07 01 2015  06 37  -14.4198 18027.3 -13510.0 -36.8486 22527.8
 07 01 2015  06 38  -14.4198 18029.6 -13510.8 -36.8466 22530.2
 07 01 2015  06 39  -14.4193 18031.5 -13510.9 -36.8440 22531.8
 07 01 2015  06 40  -14.4190 18032.2 -13510.9 -36.8429 22532.3
 07 01 2015  06 41  -14.4187 18031.7 -13510.6 -36.8429 22531.7
 07 01 2015  06 42  -14.4187 18031.4 -13510.4 -36.8432 22531.4
 07 01 2015  06 43  -14.4187 18032.1 -13510.5 -36.8421 22532.0
 07 01 2015  06 44  -14.4176 18032.7 -13510.5 -36.8414 22532.5
 07 01 2015  06 45  -14.4178 18032.2 -13510.3 -36.8417 22532.0
 07 01 2015  06 46  -14.4186 18031.4 -13510.1 -36.8426 22531.2
 07 01 2015  06 47  -14.4197 18030.5 -13509.7 -36.8430 22530.2
 07 01 2015  06 48  -14.4202 18029.6 -13509.6 -36.8443 22529.4
 07 01 2015  06 49  -14.4212 18028.6 -13509.6 -36.8457 22528.7
 07 01 2015  06 50  -14.4211 18028.9 -13509.8 -36.8457 22529.0
 07 01 2015  06 51  -14.4203 18029.3 -13510.1 -36.8456 22529.5
 07 01 2015  06 52  -14.4208 18029.2 -13510.1 -36.8458 22529.4
 07 01 2015  06 53  -14.4215 18028.8 -13510.0 -36.8463 22529.0
 07 01 2015  06 54  -14.4222 18028.5 -13509.9 -36.8466 22528.7
 07 01 2015  06 55  -14.4224 18028.6 -13510.1 -36.8468 22528.9
 07 01 2015  06 56  -14.4225 18028.8 -13510.2 -36.8466 22529.1
 07 01 2015  06 57  -14.4220 18028.9 -13510.3 -36.8467 22529.3
 07 01 2015  06 58  -14.4216 18029.0 -13510.2 -36.8464 22529.3
 07 01 2015  06 59  -14.4217 18029.4 -13510.3 -36.8460 22529.7
 07 01 2015  07 00  -14.4213 18028.6 -13510.2 -36.8470 22529.0
 07 01 2015  07 01  -14.4224 18027.9 -13510.1 -36.8478 22528.3
 07 01 2015  07 02  -14.4239 18028.7 -13510.2 -36.8468 22529.1
 07 01 2015  07 03  -14.4244 18030.3 -13510.6 -36.8452 22530.7
 07 01 2015  07 04  -14.4244 18030.2 -13510.6 -36.8453 22530.6
 07 01 2015  07 05  -14.4253 18024.8 -13509.4 -36.8512 22525.4
 07 01 2015  07 06  -14.4276 18017.6 -13508.1 -36.8594 22518.9
 07 01 2015  07 07  -14.4325 18016.9 -13508.7 -36.8618 22518.8
 07 01 2015  07 08  -14.4319 18019.9 -13510.0 -36.8598 22521.9
 07 01 2015  07 09  -14.4314 18023.5 -13511.3 -36.8568 22525.6
 07 01 2015  07 10  -14.4317 18027.1 -13512.1 -36.8530 22528.9
 07 01 2015  07 11  -14.4285 18026.5 -13511.4 -36.8526 22528.0
 07 01 2015  07 12  -14.4295 18025.6 -13510.9 -36.8530 22527.1
 07 01 2015  07 13  -14.4300 18026.2 -13511.2 -36.8525 22527.7
 07 01 2015  07 14  -14.4293 18027.9 -13511.4 -36.8505 22529.2
 07 01 2015  07 15  -14.4272 18032.0 -13512.1 -36.8456 22532.9
 07 01 2015  07 16  -14.4237 18035.0 -13512.3 -36.8414 22535.4
 07 01 2015  07 17  -14.4224 18036.8 -13512.0 -36.8382 22536.6
 07 01 2015  07 18  -14.4212 18039.6 -13512.1 -36.8339 22539.0
 07 01 2015  07 19  -14.4191 18045.4 -13512.7 -36.8264 22543.9
 07 01 2015  07 20  -14.4153 18049.3 -13512.6 -36.8204 22547.0
 07 01 2015  07 21  -14.4136 18047.4 -13511.3 -36.8205 22544.7
 07 01 2015  07 22  -14.4143 18042.4 -13509.6 -36.8246 22539.7
 07 01 2015  07 23  -14.4154 18040.1 -13509.0 -36.8270 22537.5
 07 01 2015  07 24  -14.4160 18040.5 -13509.4 -36.8271 22538.0
 07 01 2015  07 25  -14.4158 18041.7 -13509.7 -36.8261 22539.2
 07 01 2015  07 26  -14.4155 18043.6 -13510.2 -36.8241 22541.0
 07 01 2015  07 27  -14.4149 18045.5 -13510.5 -36.8217 22542.7
 07 01 2015  07 28  -14.4142 18046.6 -13510.4 -36.8199 22543.6
 07 01 2015  07 29  -14.4131 18047.7 -13510.5 -36.8184 22544.4
 07 01 2015  07 30  -14.4103 18047.5 -13510.2 -36.8181 22544.1
 07 01 2015  07 31  -14.4068 18046.6 -13509.9 -36.8188 22543.2
 07 01 2015  07 32  -14.4048 18045.9 -13509.8 -36.8197 22542.6
 07 01 2015  07 33  -14.4027 18045.3 -13509.8 -36.8206 22542.1
 07 01 2015  07 34  -14.4008 18044.7 -13509.8 -36.8216 22541.6
 07 01 2015  07 35  -14.3987 18044.0 -13509.7 -36.8225 22541.0
 07 01 2015  07 36  -14.3961 18042.9 -13509.9 -36.8245 22540.3
 07 01 2015  07 37  -14.3965 18040.8 -13509.9 -36.8277 22538.5
 07 01 2015  07 38  -14.3980 18039.5 -13509.9 -36.8297 22537.5
 07 01 2015  07 39  -14.3979 18039.0 -13510.2 -36.8311 22537.3
 07 01 2015  07 40  -14.4003 18039.3 -13510.7 -36.8317 22537.9
 07 01 2015  07 41  -14.3989 18038.7 -13510.7 -36.8326 22537.4
 07 01 2015  07 42  -14.4012 18040.4 -13511.4 -36.8314 22539.2
 07 01 2015  07 43  -14.3948 18043.3 -13512.1 -36.8285 22541.9
 07 01 2015  07 44  -14.3919 18042.9 -13511.9 -36.8287 22541.4
 07 01 2015  07 45  -14.3938 18040.9 -13511.5 -36.8308 22539.6
 07 01 2015  07 46  -14.3957 18042.1 -13511.8 -36.8297 22540.7
 07 01 2015  07 47  -14.3923 18040.9 -13511.6 -36.8311 22539.6
 07 01 2015  07 48  -14.3965 18035.3 -13510.5 -36.8373 22534.5
 07 01 2015  07 49  -14.4055 18032.0 -13510.4 -36.8420 22531.9
 07 01 2015  07 50  -14.4107 18031.2 -13510.8 -36.8442 22531.4
 07 01 2015  07 51  -14.4142 18029.8 -13511.2 -36.8472 22530.6
 07 01 2015  07 52  -14.4167 18029.7 -13511.8 -36.8484 22530.8
 07 01 2015  07 53  -14.4158 18029.7 -13512.3 -36.8494 22531.1
 07 01 2015  07 54  -14.4153 18029.2 -13512.5 -36.8507 22530.8
 07 01 2015  07 55  -14.4151 18028.8 -13512.8 -36.8518 22530.7
 07 01 2015  07 56  -14.4137 18028.4 -13513.0 -36.8530 22530.6
 07 01 2015  07 57  -14.4146 18026.4 -13512.8 -36.8556 22528.8
 07 01 2015  07 58  -14.4172 18025.8 -13513.2 -36.8572 22528.5
 07 01 2015  07 59  -14.4181 18025.6 -13513.5 -36.8583 22528.6
 07 01 2015  08 00  -14.4200 18026.9 -13514.0 -36.8574 22529.9
 07 01 2015  08 01  -14.4160 18027.9 -13514.6 -36.8568 22531.1
 07 01 2015  08 02  -14.4140 18028.7 -13514.7 -36.8559 22531.8
 07 01 2015  08 03  -14.4112 18029.2 -13514.9 -36.8554 22532.3
 07 01 2015  08 04  -14.4082 18027.9 -13514.5 -36.8569 22531.0
 07 01 2015  08 05  -14.4122 18025.3 -13514.2 -36.8601 22528.8
 07 01 2015  08 06  -14.4195 18023.3 -13514.1 -36.8628 22527.1
 07 01 2015  08 07  -14.4241 18021.9 -13514.2 -36.8653 22526.0
 07 01 2015  08 08  -14.4254 18021.1 -13514.5 -36.8671 22525.5
 07 01 2015  08 09  -14.4293 18019.3 -13514.5 -36.8700 22524.1
 07 01 2015  08 10  -14.4279 18018.7 -13514.8 -36.8715 22523.8
 07 01 2015  08 11  -14.4330 18015.6 -13514.6 -36.8757 22521.2
 07 01 2015  08 12  -14.4309 18015.2 -13515.1 -36.8773 22521.2
 07 01 2015  08 13  -14.4354 18014.7 -13515.4 -36.8788 22521.0
 07 01 2015  08 14  -14.4338 18014.2 -13515.7 -36.8802 22520.8
 07 01 2015  08 15  -14.4375 18012.7 -13515.8 -36.8826 22519.6
 07 01 2015  08 16  -14.4414 18012.5 -13516.1 -36.8836 22519.7
 07 01 2015  08 17  -14.4381 18011.9 -13516.3 -36.8849 22519.3
 07 01 2015  08 18  -14.4417 18010.7 -13516.5 -36.8870 22518.4
 07 01 2015  08 19  -14.4416 18012.1 -13517.1 -36.8861 22519.9
 07 01 2015  08 20  -14.4388 18012.8 -13517.4 -36.8857 22520.6
 07 01 2015  08 21  -14.4386 18012.4 -13517.5 -36.8865 22520.4
 07 01 2015  08 22  -14.4373 18012.8 -13517.6 -36.8861 22520.9
 07 01 2015  08 23  -14.4381 18014.9 -13518.1 -36.8840 22522.8
 07 01 2015  08 24  -14.4330 18016.0 -13518.3 -36.8826 22523.8
 07 01 2015  08 25  -14.4320 18013.3 -13517.5 -36.8852 22521.1
 07 01 2015  08 26  -14.4342 18007.6 -13516.5 -36.8917 22516.0
 07 01 2015  08 27  -14.4408 17999.8 -13515.5 -36.9016 22509.1
 07 01 2015  08 28  -14.4578 17995.1 -13515.3 -36.9085 22505.3
 07 01 2015  08 29  -14.4607 17990.6 -13515.6 -36.9160 22501.8
 07 01 2015  08 30  -14.4596 17987.3 -13516.0 -36.9218 22499.4
 07 01 2015  08 31  -14.4818 17978.5 -13515.5 -36.9344 22492.1
 07 01 2015  08 32  -14.5003 17978.5 -13516.7 -36.9367 22492.8
 07 01 2015  08 33  -14.5004 17984.0 -13518.9 -36.9327 22498.6
 07 01 2015  08 34  -14.4919 17983.7 -13519.3 -36.9341 22498.6
 07 01 2015  08 35  -14.4975 17980.9 -13519.1 -36.9378 22496.2
 07 01 2015  08 36  -14.4958 17979.8 -13519.2 -36.9397 22495.4
 07 01 2015  08 37  -14.4904 17980.8 -13520.0 -36.9398 22496.7
 07 01 2015  08 38  -14.4881 17980.2 -13520.3 -36.9415 22496.3
 07 01 2015  08 39  -14.4876 17979.5 -13520.6 -36.9430 22496.0
 07 01 2015  08 40  -14.4848 17980.1 -13521.0 -36.9430 22496.7
 07 01 2015  08 41  -14.4802 17979.6 -13521.3 -36.9444 22496.5
 07 01 2015  08 42  -14.4783 17978.1 -13521.3 -36.9466 22495.3
 07 01 2015  08 43  -14.4752 17977.4 -13521.4 -36.9481 22494.8
 07 01 2015  08 44  -14.4697 17977.9 -13522.0 -36.9483 22495.5
 07 01 2015  08 45  -14.4646 17978.6 -13522.6 -36.9486 22496.5
 07 01 2015  08 46  -14.4606 17979.0 -13523.1 -36.9489 22497.1
 07 01 2015  08 47  -14.4529 17978.5 -13523.3 -36.9502 22496.8
 07 01 2015  08 48  -14.4508 17975.9 -13523.2 -36.9538 22494.7
 07 01 2015  08 49  -14.4466 17974.1 -13523.2 -36.9567 22493.2
 07 01 2015  08 50  -14.4461 17971.6 -13523.1 -36.9602 22491.2
 07 01 2015  08 51  -14.4380 17973.9 -13524.1 -36.9589 22493.6
 07 01 2015  08 52  -14.4323 17973.1 -13524.5 -36.9609 22493.2
 07 01 2015  08 53  -14.4293 17971.8 -13524.5 -36.9628 22492.1
 07 01 2015  08 54  -14.4290 17967.8 -13524.2 -36.9682 22488.8
 07 01 2015  08 55  -14.4351 17960.6 -13522.8 -36.9765 22482.2
 07 01 2015  08 56  -14.4389 17960.7 -13523.5 -36.9778 22482.7
 07 01 2015  08 57  -14.4387 17964.0 -13525.2 -36.9762 22486.4
 07 01 2015  08 58  -14.4400 17964.3 -13525.5 -36.9765 22486.7
 07 01 2015  08 59  -14.4420 17965.0 -13525.8 -36.9759 22487.5
 07 01 2015  09 00  -14.4415 17965.4 -13526.0 -36.9756 22487.9
 07 01 2015  09 01  -14.4414 17965.1 -13526.1 -36.9763 22487.8
 07 01 2015  09 02  -14.4409 17965.6 -13526.1 -36.9757 22488.2
 07 01 2015  09 03  -14.4389 17968.9 -13526.9 -36.9723 22491.3
 07 01 2015  09 04  -14.4374 17969.1 -13526.9 -36.9720 22491.4
 07 01 2015  09 05  -14.4373 17971.1 -13527.2 -36.9694 22493.3
 07 01 2015  09 06  -14.4383 17971.2 -13527.1 -36.9690 22493.3
 07 01 2015  09 07  -14.4393 17972.6 -13526.9 -36.9666 22494.3
 07 01 2015  09 08  -14.4402 17976.1 -13527.7 -36.9627 22497.5
 07 01 2015  09 09  -14.4378 17979.5 -13528.0 -36.9582 22500.4
 07 01 2015  09 10  -14.4428 17977.4 -13527.0 -36.9593 22498.1
 07 01 2015  09 11  -14.4473 17980.6 -13527.2 -36.9548 22500.8
 07 01 2015  09 12  -14.4510 17982.1 -13527.1 -36.9525 22501.9
 07 01 2015  09 13  -14.4543 17980.6 -13526.0 -36.9525 22500.1
 07 01 2015  09 14  -14.4554 17983.6 -13526.5 -36.9487 22502.8
 07 01 2015  09 15  -14.4617 17987.3 -13526.9 -36.9439 22506.0
 07 01 2015  09 16  -14.4662 17983.0 -13525.2 -36.9472 22501.6
 07 01 2015  09 17  -14.4695 17981.3 -13524.4 -36.9481 22499.7
 07 01 2015  09 18  -14.4751 17980.8 -13524.5 -36.9491 22499.4
 07 01 2015  09 19  -14.4768 17983.2 -13525.1 -36.9466 22501.6
 07 01 2015  09 20  -14.4789 17986.5 -13525.6 -36.9425 22504.6
 07 01 2015  09 21  -14.4803 17985.4 -13525.0 -36.9431 22503.4
 07 01 2015  09 22  -14.4824 17983.7 -13524.3 -36.9441 22501.6
 07 01 2015  09 23  -14.4891 17982.0 -13524.1 -36.9464 22500.0
 07 01 2015  09 24  -14.4916 17982.1 -13524.1 -36.9463 22500.1
 07 01 2015  09 25  -14.4951 17981.5 -13524.1 -36.9473 22499.7
 07 01 2015  09 26  -14.4990 17982.4 -13524.3 -36.9463 22500.5
 07 01 2015  09 27  -14.5016 17982.2 -13524.5 -36.9470 22500.4
 07 01 2015  09 28  -14.5037 17980.5 -13524.1 -36.9485 22498.9
 07 01 2015  09 29  -14.5066 17976.0 -13523.4 -36.9541 22494.9
 07 01 2015  09 30  -14.5073 17974.3 -13523.3 -36.9565 22493.4
 07 01 2015  09 31  -14.5081 17975.5 -13524.3 -36.9566 22495.0
 07 01 2015  09 32  -14.5077 17977.0 -13525.0 -36.9559 22496.6
 07 01 2015  09 33  -14.5080 17977.6 -13525.3 -36.9556 22497.3
 07 01 2015  09 34  -14.5071 17976.8 -13525.2 -36.9566 22496.6
 07 01 2015  09 35  -14.5072 17975.4 -13525.0 -36.9583 22495.3
 07 01 2015  09 36  -14.5041 17974.2 -13525.0 -36.9602 22494.4
 07 01 2015  09 37  -14.5013 17970.6 -13524.5 -36.9647 22491.2
 07 01 2015  09 38  -14.4982 17962.4 -13523.3 -36.9748 22483.9
 07 01 2015  09 39  -14.4938 17959.6 -13523.8 -36.9800 22482.0
 07 01 2015  09 40  -14.4938 17961.6 -13525.6 -36.9808 22484.7
 07 01 2015  09 41  -14.4948 17960.8 -13526.2 -36.9832 22484.4
 07 01 2015  09 42  -14.4965 17960.6 -13526.8 -36.9846 22484.6
 07 01 2015  09 43  -14.5003 17961.7 -13527.6 -36.9845 22486.0
 07 01 2015  09 44  -14.5027 17962.5 -13528.1 -36.9843 22486.9
 07 01 2015  09 45  -14.5042 17962.3 -13528.1 -36.9848 22486.8
 07 01 2015  09 46  -14.5023 17961.9 -13528.2 -36.9854 22486.5
 07 01 2015  09 47  -14.5015 17962.0 -13528.4 -36.9859 22486.7
 07 01 2015  09 48  -14.5004 17964.8 -13529.3 -36.9833 22489.5
 07 01 2015  09 49  -14.5010 17967.5 -13529.8 -36.9802 22492.0
 07 01 2015  09 50  -14.4982 17966.8 -13529.6 -36.9810 22491.2
 07 01 2015  09 51  -14.4980 17966.5 -13529.4 -36.9809 22490.9
 07 01 2015  09 52  -14.4972 17967.2 -13529.7 -36.9805 22491.6
 07 01 2015  09 53  -14.4963 17968.9 -13530.1 -36.9787 22493.2
 07 01 2015  09 54  -14.4968 17968.9 -13530.1 -36.9786 22493.2
 07 01 2015  09 55  -14.4964 17966.6 -13529.6 -36.9812 22491.0
 07 01 2015  09 56  -14.4959 17966.1 -13529.7 -36.9823 22490.7
 07 01 2015  09 57  -14.4943 17965.7 -13529.9 -36.9833 22490.5
 07 01 2015  09 58  -14.4937 17963.4 -13529.6 -36.9862 22488.5
 07 01 2015  09 59  -14.4908 17960.8 -13529.6 -36.9901 22486.5
 07 01 2015  10 00  -14.4875 17959.4 -13530.0 -36.9929 22485.6
 07 01 2015  10 01  -14.4844 17959.1 -13530.6 -36.9948 22485.7
 07 01 2015  10 02  -14.4824 17958.6 -13531.1 -36.9965 22485.6
 07 01 2015  10 03  -14.4835 17959.6 -13531.9 -36.9966 22486.9
 07 01 2015  10 04  -14.4837 17959.9 -13532.0 -36.9964 22487.2
 07 01 2015  10 05  -14.4845 17961.5 -13532.6 -36.9952 22488.8
 07 01 2015  10 06  -14.4885 17963.4 -13533.2 -36.9935 22490.7
 07 01 2015  10 07  -14.4919 17963.8 -13533.1 -36.9925 22490.9
 07 01 2015  10 08  -14.4968 17964.9 -13533.1 -36.9910 22491.8
 07 01 2015  10 09  -14.5023 17966.4 -13533.3 -36.9891 22493.1
 07 01 2015  10 10  -14.5063 17965.6 -13532.7 -36.9890 22492.1
 07 01 2015  10 11  -14.5066 17965.9 -13532.6 -36.9882 22492.3
 07 01 2015  10 12  -14.5063 17964.8 -13532.4 -36.9896 22491.4
 07 01 2015  10 13  -14.5064 17965.2 -13532.5 -36.9893 22491.7
 07 01 2015  10 14  -14.5059 17965.4 -13532.7 -36.9894 22492.0
 07 01 2015  10 15  -14.5091 17962.6 -13532.1 -36.9923 22489.4
 07 01 2015  10 16  -14.5076 17959.8 -13531.8 -36.9960 22487.0
 07 01 2015  10 17  -14.5035 17959.4 -13532.3 -36.9977 22486.9
 07 01 2015  10 18  -14.5025 17956.7 -13532.3 -37.0020 22484.8
 07 01 2015  10 19  -14.5010 17954.3 -13532.4 -37.0057 22482.9
 07 01 2015  10 20  -14.5006 17953.7 -13533.1 -37.0080 22482.9
 07 01 2015  10 21  -14.5039 17955.1 -13534.1 -37.0080 22484.6
 07 01 2015  10 22  -14.5110 17957.6 -13534.8 -37.0057 22487.0
 07 01 2015  10 23  -14.5196 17958.2 -13534.7 -37.0045 22487.4
 07 01 2015  10 24  -14.5224 17956.5 -13534.0 -37.0057 22485.7
 07 01 2015  10 25  -14.5245 17957.4 -13534.2 -37.0046 22486.5
 07 01 2015  10 26  -14.5234 17956.2 -13533.9 -37.0059 22485.4
 07 01 2015  10 27  -14.5238 17955.5 -13533.9 -37.0070 22484.8
 07 01 2015  10 28  -14.5232 17954.5 -13533.9 -37.0084 22483.9
 07 01 2015  10 29  -14.5240 17954.3 -13534.0 -37.0091 22483.9
 07 01 2015  10 30  -14.5208 17954.5 -13534.3 -37.0092 22484.2
 07 01 2015  10 31  -14.5176 17953.7 -13534.3 -37.0106 22483.6
 07 01 2015  10 32  -14.5148 17954.3 -13534.7 -37.0105 22484.3
 07 01 2015  10 33  -14.5144 17950.9 -13534.3 -37.0148 22481.4
 07 01 2015  10 34  -14.5112 17951.1 -13534.9 -37.0157 22481.9
 07 01 2015  10 35  -14.5102 17951.7 -13535.3 -37.0156 22482.6
 07 01 2015  10 36  -14.5126 17953.2 -13535.9 -37.0146 22484.2
 07 01 2015  10 37  -14.5159 17955.4 -13536.4 -37.0123 22486.3
 07 01 2015  10 38  -14.5137 17954.8 -13536.0 -37.0123 22485.5
 07 01 2015  10 39  -14.5120 17954.4 -13535.8 -37.0126 22485.1
 07 01 2015  10 40  -14.5106 17955.2 -13536.0 -37.0115 22485.8
 07 01 2015  10 41  -14.5124 17953.9 -13535.7 -37.0130 22484.6
 07 01 2015  10 42  -14.5094 17953.6 -13535.6 -37.0133 22484.3
 07 01 2015  10 43  -14.5033 17948.5 -13534.7 -37.0193 22479.7
 07 01 2015  10 44  -14.4961 17948.0 -13535.3 -37.0213 22479.7
 07 01 2015  10 45  -14.4975 17945.3 -13535.3 -37.0255 22477.5
 07 01 2015  10 46  -14.4990 17946.2 -13536.2 -37.0259 22478.7
 07 01 2015  10 47  -14.5024 17945.4 -13536.4 -37.0274 22478.2
 07 01 2015  10 48  -14.5057 17947.0 -13536.9 -37.0260 22479.8
 07 01 2015  10 49  -14.5078 17945.2 -13536.4 -37.0279 22478.1
 07 01 2015  10 50  -14.5142 17942.3 -13535.6 -37.0307 22475.3
 07 01 2015  10 51  -14.5150 17940.3 -13535.5 -37.0336 22473.7
 07 01 2015  10 52  -14.5165 17936.7 -13535.1 -37.0382 22470.5
 07 01 2015  10 53  -14.5166 17933.9 -13535.2 -37.0428 22468.3
 07 01 2015  10 54  -14.5207 17934.3 -13536.1 -37.0440 22469.2
 07 01 2015  10 55  -14.5279 17936.3 -13537.0 -37.0428 22471.3
 07 01 2015  10 56  -14.5352 17936.7 -13537.1 -37.0424 22471.7
 07 01 2015  10 57  -14.5396 17939.3 -13537.6 -37.0394 22474.0
 07 01 2015  10 58  -14.5436 17942.6 -13538.0 -37.0351 22477.0
 07 01 2015  10 59  -14.5465 17943.4 -13537.5 -37.0330 22477.3
 07 01 2015  11 00  -14.5508 17943.9 -13537.1 -37.0313 22477.5
 07 01 2015  11 01  -14.5547 17946.4 -13537.3 -37.0279 22479.6
 07 01 2015  11 02  -14.5586 17946.1 -13536.6 -37.0269 22479.0
 07 01 2015  11 03  -14.5597 17946.1 -13536.2 -37.0260 22478.7
 07 01 2015  11 04  -14.5635 17946.4 -13536.0 -37.0252 22478.8
 07 01 2015  11 05  -14.5622 17947.9 -13535.9 -37.0227 22479.9
 07 01 2015  11 06  -14.5602 17946.6 -13535.4 -37.0237 22478.6
 07 01 2015  11 07  -14.5581 17946.6 -13535.6 -37.0240 22478.7
 07 01 2015  11 08  -14.5598 17947.8 -13535.8 -37.0227 22479.8
 07 01 2015  11 09  -14.5564 17948.5 -13535.9 -37.0218 22480.4
 07 01 2015  11 10  -14.5566 17946.7 -13535.5 -37.0237 22478.7
 07 01 2015  11 11  -14.5525 17946.6 -13535.6 -37.0241 22478.7
 07 01 2015  11 12  -14.5492 17947.9 -13536.1 -37.0230 22480.1
 07 01 2015  11 13  -14.5465 17949.6 -13536.5 -37.0214 22481.7
 07 01 2015  11 14  -14.5476 17949.5 -13536.4 -37.0212 22481.5
 07 01 2015  11 15  -14.5469 17950.1 -13536.3 -37.0201 22482.0
 07 01 2015  11 16  -14.5444 17950.2 -13536.4 -37.0200 22482.1
 07 01 2015  11 17  -14.5425 17947.2 -13535.7 -37.0233 22479.3
 07 01 2015  11 18  -14.5392 17947.3 -13536.0 -37.0239 22479.5
 07 01 2015  11 19  -14.5363 17950.0 -13537.1 -37.0217 22482.3
 07 01 2015  11 20  -14.5332 17948.9 -13536.7 -37.0229 22481.2
 07 01 2015  11 21  -14.5348 17946.0 -13536.1 -37.0260 22478.6
 07 01 2015  11 22  -14.5391 17943.4 -13535.9 -37.0295 22476.4
 07 01 2015  11 23  -14.5401 17945.1 -13536.7 -37.0286 22478.1
 07 01 2015  11 24  -14.5410 17943.7 -13536.7 -37.0306 22477.1
 07 01 2015  11 25  -14.5414 17939.2 -13536.0 -37.0364 22473.0
 07 01 2015  11 26  -14.5437 17936.1 -13536.0 -37.0411 22470.6
 07 01 2015  11 27  -14.5466 17936.5 -13537.1 -37.0425 22471.6
 07 01 2015  11 28  -14.5450 17936.9 -13537.7 -37.0434 22472.2
 07 01 2015  11 29  -14.5443 17935.8 -13538.0 -37.0456 22471.5
 07 01 2015  11 30  -14.5444 17932.0 -13537.5 -37.0505 22468.2
 07 01 2015  11 31  -14.5458 17927.7 -13537.2 -37.0564 22464.7
 07 01 2015  11 32  -14.5484 17925.9 -13537.9 -37.0606 22463.6
 07 01 2015  11 33  -14.5509 17924.2 -13538.5 -37.0643 22462.6
 07 01 2015  11 34  -14.5509 17920.2 -13538.4 -37.0703 22459.3
 07 01 2015  11 35  -14.5498 17917.4 -13538.7 -37.0753 22457.3
 07 01 2015  11 36  -14.5498 17914.6 -13539.1 -37.0804 22455.3
 07 01 2015  11 37  -14.5480 17913.7 -13540.0 -37.0836 22455.1
 07 01 2015  11 38  -14.5479 17911.4 -13540.4 -37.0878 22453.5
 07 01 2015  11 39  -14.5485 17907.4 -13540.3 -37.0939 22450.2
 07 01 2015  11 40  -14.5472 17903.0 -13540.4 -37.1009 22446.9
 07 01 2015  11 41  -14.5468 17900.4 -13541.2 -37.1066 22445.2
 07 01 2015  11 42  -14.5440 17899.9 -13542.5 -37.1099 22445.6
 07 01 2015  11 43  -14.5386 17900.7 -13543.9 -37.1115 22447.1
 07 01 2015  11 44  -14.5349 17902.1 -13545.1 -37.1120 22448.9
 07 01 2015  11 45  -14.5316 17902.4 -13545.7 -37.1125 22449.5
 07 01 2015  11 46  -14.5273 17903.3 -13546.2 -37.1122 22450.6
 07 01 2015  11 47  -14.5238 17904.9 -13546.9 -37.1113 22452.3
 07 01 2015  11 48  -14.5215 17905.5 -13547.3 -37.1110 22453.0
 07 01 2015  11 49  -14.5198 17904.6 -13547.2 -37.1122 22452.2
 07 01 2015  11 50  -14.5186 17903.9 -13547.2 -37.1135 22451.6
 07 01 2015  11 51  -14.5196 17902.8 -13547.4 -37.1154 22450.9
 07 01 2015  11 52  -14.5214 17901.0 -13547.3 -37.1179 22449.4
 07 01 2015  11 53  -14.5227 17899.6 -13547.5 -37.1205 22448.4
 07 01 2015  11 54  -14.5219 17900.1 -13548.0 -37.1208 22449.1
 07 01 2015  11 55  -14.5189 17901.4 -13548.7 -37.1202 22450.6
 07 01 2015  11 56  -14.5175 17901.7 -13548.9 -37.1201 22450.9
 07 01 2015  11 57  -14.5175 17901.7 -13549.1 -37.1207 22451.0
 07 01 2015  11 58  -14.5181 17901.2 -13549.0 -37.1212 22450.6
 07 01 2015  11 59  -14.5179 17901.5 -13549.2 -37.1210 22450.9
 07 01 2015  12 00  -14.5166 17900.8 -13549.1 -37.1219 22450.3
 07 01 2015  12 01  -14.5154 17899.9 -13549.0 -37.1233 22449.5
 07 01 2015  12 02  -14.5138 17900.0 -13549.2 -37.1235 22449.8
 07 01 2015  12 03  -14.5132 17900.5 -13549.6 -37.1234 22450.4
 07 01 2015  12 04  -14.5114 17902.3 -13550.0 -37.1214 22452.0
 07 01 2015  12 05  -14.5087 17903.5 -13550.1 -37.1197 22453.1
 07 01 2015  12 06  -14.5064 17904.5 -13550.1 -37.1182 22453.9
 07 01 2015  12 07  -14.5034 17905.8 -13550.1 -37.1164 22454.9
 07 01 2015  12 08  -14.5005 17905.6 -13549.9 -37.1161 22454.6
 07 01 2015  12 09  -14.4973 17906.2 -13549.8 -37.1151 22455.1
 07 01 2015  12 10  -14.4946 17907.2 -13550.0 -37.1140 22455.9
 07 01 2015  12 11  -14.4934 17907.6 -13549.9 -37.1131 22456.2
 07 01 2015  12 12  -14.4923 17907.6 -13549.7 -37.1128 22456.1
 07 01 2015  12 13  -14.4916 17907.1 -13549.5 -37.1131 22455.6
 07 01 2015  12 14  -14.4923 17905.1 -13549.0 -37.1152 22453.7
 07 01 2015  12 15  -14.4922 17905.3 -13549.2 -37.1153 22453.9
 07 01 2015  12 16  -14.4916 17906.4 -13549.7 -37.1146 22455.1
 07 01 2015  12 17  -14.4901 17908.7 -13550.1 -37.1119 22457.2
 07 01 2015  12 18  -14.4890 17908.9 -13549.9 -37.1110 22457.2
 07 01 2015  12 19  -14.4880 17907.9 -13549.4 -37.1116 22456.2
 07 01 2015  12 20  -14.4848 17910.5 -13550.0 -37.1088 22458.6
 07 01 2015  12 21  -14.4830 17910.3 -13549.8 -37.1087 22458.3
 07 01 2015  12 22  -14.4857 17905.5 -13548.4 -37.1133 22453.6
 07 01 2015  12 23  -14.4866 17906.3 -13548.9 -37.1132 22454.6
 07 01 2015  12 24  -14.4865 17909.6 -13549.8 -37.1099 22457.8
 07 01 2015  12 25  -14.4822 17914.2 -13550.5 -37.1043 22461.9
 07 01 2015  12 26  -14.4815 17912.3 -13549.6 -37.1053 22459.8
 07 01 2015  12 27  -14.4838 17908.1 -13548.3 -37.1091 22455.6
 07 01 2015  12 28  -14.4876 17905.2 -13547.7 -37.1124 22453.0
 07 01 2015  12 29  -14.4910 17902.1 -13547.6 -37.1168 22450.5
 07 01 2015  12 30  -14.4932 17901.0 -13547.9 -37.1192 22449.7
 07 01 2015  12 31  -14.4934 17900.1 -13548.3 -37.1214 22449.3
 07 01 2015  12 32  -14.4928 17899.8 -13548.7 -37.1227 22449.3
 07 01 2015  12 33  -14.4911 17901.5 -13549.5 -37.1217 22451.1
 07 01 2015  12 34  -14.4929 17901.0 -13549.4 -37.1222 22450.7
 07 01 2015  12 35  -14.4947 17898.8 -13548.9 -37.1247 22448.6
 07 01 2015  12 36  -14.4953 17897.1 -13548.8 -37.1272 22447.2
 07 01 2015  12 37  -14.4950 17896.4 -13549.0 -37.1285 22446.7
 07 01 2015  12 38  -14.4925 17896.4 -13549.5 -37.1295 22447.1
 07 01 2015  12 39  -14.4917 17896.2 -13549.7 -37.1302 22447.0
 07 01 2015  12 40  -14.4933 17895.3 -13549.7 -37.1317 22446.3
 07 01 2015  12 41  -14.4947 17894.6 -13549.6 -37.1326 22445.7
 07 01 2015  12 42  -14.4956 17894.5 -13549.9 -37.1332 22445.8
 07 01 2015  12 43  -14.4966 17893.8 -13549.9 -37.1344 22445.2
 07 01 2015  12 44  -14.4962 17894.3 -13550.2 -37.1341 22445.8
 07 01 2015  12 45  -14.4947 17895.8 -13550.6 -37.1327 22447.2
 07 01 2015  12 46  -14.4919 17897.2 -13550.8 -37.1309 22448.5
 07 01 2015  12 47  -14.4875 17897.9 -13550.9 -37.1300 22449.1
 07 01 2015  12 48  -14.4849 17897.6 -13550.6 -37.1299 22448.7
 07 01 2015  12 49  -14.4837 17898.5 -13550.7 -37.1288 22449.4
 07 01 2015  12 50  -14.4817 17899.7 -13550.7 -37.1270 22450.5
 07 01 2015  12 51  -14.4787 17901.8 -13550.9 -37.1241 22452.2
 07 01 2015  12 52  -14.4760 17902.9 -13550.7 -37.1219 22453.0
 07 01 2015  12 53  -14.4740 17903.3 -13550.3 -37.1206 22453.0
 07 01 2015  12 54  -14.4727 17903.0 -13549.8 -37.1201 22452.5
 07 01 2015  12 55  -14.4714 17903.0 -13549.5 -37.1194 22452.3
 07 01 2015  12 56  -14.4721 17903.1 -13549.3 -37.1189 22452.3
 07 01 2015  12 57  -14.4737 17902.6 -13548.8 -37.1186 22451.6
 07 01 2015  12 58  -14.4740 17903.0 -13548.7 -37.1179 22451.8
 07 01 2015  12 59  -14.4731 17905.5 -13549.0 -37.1145 22454.0
 07 01 2015  13 00  -14.4733 17907.9 -13549.1 -37.1111 22456.0
 07 01 2015  13 01  -14.4695 17910.4 -13549.0 -37.1069 22457.9
 07 01 2015  13 02  -14.4635 17911.7 -13548.6 -37.1041 22458.7
 07 01 2015  13 03  -14.4607 17912.1 -13548.1 -37.1025 22458.7
 07 01 2015  13 04  -14.4597 17912.8 -13547.6 -37.1003 22459.0
 07 01 2015  13 05  -14.4583 17913.5 -13547.2 -37.0984 22459.3
 07 01 2015  13 06  -14.4587 17912.8 -13546.4 -37.0980 22458.3
 07 01 2015  13 07  -14.4597 17912.0 -13545.7 -37.0976 22457.2
 07 01 2015  13 08  -14.4626 17911.5 -13545.3 -37.0977 22456.6
 07 01 2015  13 09  -14.4650 17911.0 -13544.8 -37.0976 22455.8
 07 01 2015  13 10  -14.4664 17910.9 -13544.4 -37.0968 22455.6
 07 01 2015  13 11  -14.4677 17911.4 -13544.4 -37.0960 22455.9
 07 01 2015  13 12  -14.4693 17911.0 -13543.8 -37.0956 22455.3
 07 01 2015  13 13  -14.4700 17910.3 -13543.4 -37.0957 22454.4
 07 01 2015  13 14  -14.4721 17908.4 -13542.8 -37.0974 22452.6
 07 01 2015  13 15  -14.4746 17907.7 -13542.5 -37.0980 22451.9
 07 01 2015  13 16  -14.4742 17909.4 -13542.9 -37.0961 22453.4
 07 01 2015  13 17  -14.4740 17911.3 -13542.9 -37.0932 22455.0
 07 01 2015  13 18  -14.4737 17913.0 -13542.8 -37.0904 22456.2
 07 01 2015  13 19  -14.4720 17915.0 -13542.7 -37.0870 22457.8
 07 01 2015  13 20  -14.4670 17918.8 -13542.8 -37.0813 22460.9
 07 01 2015  13 21  -14.4620 17922.6 -13542.8 -37.0756 22463.9
 07 01 2015  13 22  -14.4580 17924.7 -13542.4 -37.0715 22465.3
 07 01 2015  13 23  -14.4555 17924.7 -13541.3 -37.0692 22464.7
 07 01 2015  13 24  -14.4555 17923.2 -13540.0 -37.0691 22462.7
 07 01 2015  13 25  -14.4577 17922.4 -13539.1 -37.0684 22461.6
 07 01 2015  13 26  -14.4609 17921.1 -13538.4 -37.0688 22460.0
 07 01 2015  13 27  -14.4649 17919.1 -13537.5 -37.0703 22457.9
 07 01 2015  13 28  -14.4695 17915.7 -13536.6 -37.0737 22454.7
 07 01 2015  13 29  -14.4794 17909.6 -13535.5 -37.0807 22449.1
 07 01 2015  13 30  -14.4915 17903.3 -13534.5 -37.0884 22443.5
 07 01 2015  13 31  -14.4991 17900.5 -13534.6 -37.0928 22441.3
 07 01 2015  13 32  -14.5013 17900.4 -13535.1 -37.0942 22441.5
 07 01 2015  13 33  -14.5020 17900.8 -13535.7 -37.0947 22442.2
 07 01 2015  13 34  -14.5017 17901.5 -13536.3 -37.0949 22443.1
 07 01 2015  13 35  -14.5021 17902.0 -13536.5 -37.0943 22443.7
 07 01 2015  13 36  -14.5027 17902.0 -13536.5 -37.0945 22443.7
 07 01 2015  13 37  -14.5020 17902.1 -13536.5 -37.0943 22443.7
 07 01 2015  13 38  -14.5007 17902.1 -13536.3 -37.0939 22443.7
 07 01 2015  13 39  -14.4998 17902.3 -13536.2 -37.0934 22443.8
 07 01 2015  13 40  -14.5008 17901.7 -13535.8 -37.0935 22443.0
 07 01 2015  13 41  -14.5013 17902.1 -13535.9 -37.0930 22443.4
 07 01 2015  13 42  -14.5012 17903.4 -13535.9 -37.0911 22444.4
 07 01 2015  13 43  -14.4999 17904.8 -13535.8 -37.0887 22445.4
 07 01 2015  13 44  -14.4966 17906.7 -13535.7 -37.0856 22447.0
 07 01 2015  13 45  -14.4945 17907.9 -13535.5 -37.0834 22447.8
 07 01 2015  13 46  -14.4935 17908.7 -13534.9 -37.0810 22448.1
 07 01 2015  13 47  -14.4914 17909.8 -13534.7 -37.0787 22448.8
 07 01 2015  13 48  -14.4900 17910.3 -13534.1 -37.0768 22448.8
 07 01 2015  13 49  -14.4888 17911.0 -13533.7 -37.0748 22449.2
 07 01 2015  13 50  -14.4863 17912.2 -13533.4 -37.0723 22449.9
 07 01 2015  13 51  -14.4840 17913.1 -13532.7 -37.0698 22450.2
 07 01 2015  13 52  -14.4838 17912.8 -13532.2 -37.0691 22449.7
 07 01 2015  13 53  -14.4816 17913.1 -13531.5 -37.0672 22449.6
 07 01 2015  13 54  -14.4801 17913.5 -13531.1 -37.0658 22449.6
 07 01 2015  13 55  -14.4795 17915.2 -13530.8 -37.0626 22450.8
 07 01 2015  13 56  -14.4762 17917.2 -13530.7 -37.0593 22452.3
 07 01 2015  13 57  -14.4751 17917.9 -13530.1 -37.0570 22452.5
 07 01 2015  13 58  -14.4752 17918.3 -13529.4 -37.0549 22452.4
 07 01 2015  13 59  -14.4735 17919.3 -13528.9 -37.0524 22452.9
 07 01 2015  14 00  -14.4740 17919.2 -13528.2 -37.0511 22452.4
 07 01 2015  14 01  -14.4747 17918.8 -13527.5 -37.0502 22451.7
 07 01 2015  14 02  -14.4751 17918.1 -13526.7 -37.0499 22450.6
 07 01 2015  14 03  -14.4739 17918.0 -13526.3 -37.0491 22450.3
 07 01 2015  14 04  -14.4724 17917.9 -13525.9 -37.0485 22449.9
 07 01 2015  14 05  -14.4723 17917.6 -13525.6 -37.0482 22449.5
 07 01 2015  14 06  -14.4721 17917.6 -13525.1 -37.0474 22449.2
 07 01 2015  14 07  -14.4724 17917.4 -13524.7 -37.0468 22448.9
 07 01 2015  14 08  -14.4731 17917.7 -13524.4 -37.0458 22448.9
 07 01 2015  14 09  -14.4741 17917.1 -13523.9 -37.0456 22448.1
 07 01 2015  14 10  -14.4753 17916.0 -13523.3 -37.0461 22446.9
 07 01 2015  14 11  -14.4755 17915.3 -13522.8 -37.0462 22446.1
 07 01 2015  14 12  -14.4744 17915.3 -13522.7 -37.0458 22446.0
 07 01 2015  14 13  -14.4717 17915.7 -13522.6 -37.0451 22446.2
 07 01 2015  14 14  -14.4701 17915.7 -13522.3 -37.0445 22446.1
 07 01 2015  14 15  -14.4687 17915.9 -13522.1 -37.0437 22446.1
 07 01 2015  14 16  -14.4671 17916.8 -13521.9 -37.0420 22446.7
 07 01 2015  14 17  -14.4659 17917.6 -13521.7 -37.0403 22447.2
 07 01 2015  14 18  -14.4651 17918.3 -13521.5 -37.0387 22447.6
 07 01 2015  14 19  -14.4647 17919.1 -13521.2 -37.0370 22448.1
 07 01 2015  14 20  -14.4637 17920.2 -13520.9 -37.0347 22448.8
 07 01 2015  14 21  -14.4629 17920.0 -13520.3 -37.0337 22448.3
 07 01 2015  14 22  -14.4637 17918.5 -13519.4 -37.0342 22446.6
 07 01 2015  14 23  -14.4648 17917.1 -13518.8 -37.0351 22445.1
 07 01 2015  14 24  -14.4656 17916.9 -13518.5 -37.0349 22444.7
 07 01 2015  14 25  -14.4662 17917.2 -13518.3 -37.0340 22444.8
 07 01 2015  14 26  -14.4652 17917.8 -13518.0 -37.0325 22445.1
 07 01 2015  14 27  -14.4644 17917.9 -13517.8 -37.0318 22445.1
 07 01 2015  14 28  -14.4651 17917.3 -13517.2 -37.0315 22444.2
 07 01 2015  14 29  -14.4653 17917.5 -13516.9 -37.0307 22444.2
 07 01 2015  14 30  -14.4645 17918.1 -13516.8 -37.0296 22444.6
 07 01 2015  14 31  -14.4634 17918.6 -13516.5 -37.0281 22444.9
 07 01 2015  14 32  -14.4633 17918.8 -13516.2 -37.0272 22444.8
 07 01 2015  14 33  -14.4618 17919.8 -13516.0 -37.0252 22445.5
 07 01 2015  14 34  -14.4600 17920.6 -13515.8 -37.0239 22446.0
 07 01 2015  14 35  -14.4597 17920.5 -13515.3 -37.0229 22445.6
 07 01 2015  14 36  -14.4591 17921.2 -13515.1 -37.0212 22446.1
 07 01 2015  14 37  -14.4565 17922.7 -13514.9 -37.0187 22447.2
 07 01 2015  14 38  -14.4547 17923.4 -13514.6 -37.0170 22447.6
 07 01 2015  14 39  -14.4533 17924.1 -13514.3 -37.0152 22447.9
 07 01 2015  14 40  -14.4531 17924.1 -13513.8 -37.0142 22447.6
 07 01 2015  14 41  -14.4525 17924.3 -13513.4 -37.0131 22447.5
 07 01 2015  14 42  -14.4520 17924.0 -13513.0 -37.0126 22447.1
 07 01 2015  14 43  -14.4514 17923.6 -13512.4 -37.0123 22446.4
 07 01 2015  14 44  -14.4517 17923.0 -13512.1 -37.0124 22445.8
 07 01 2015  14 45  -14.4527 17922.2 -13511.7 -37.0129 22444.8
 07 01 2015  14 46  -14.4532 17922.0 -13511.4 -37.0127 22444.5
 07 01 2015  14 47  -14.4534 17922.2 -13511.4 -37.0122 22444.7
 07 01 2015  14 48  -14.4536 17922.1 -13511.1 -37.0118 22444.4
 07 01 2015  14 49  -14.4534 17922.3 -13511.0 -37.0113 22444.5
 07 01 2015  14 50  -14.4528 17922.8 -13510.9 -37.0102 22444.9
 07 01 2015  14 51  -14.4529 17923.2 -13510.7 -37.0092 22445.0
 07 01 2015  14 52  -14.4533 17923.6 -13510.4 -37.0080 22445.2
 07 01 2015  14 53  -14.4524 17924.4 -13510.2 -37.0063 22445.7
 07 01 2015  14 54  -14.4509 17924.5 -13509.9 -37.0055 22445.6
 07 01 2015  14 55  -14.4493 17924.5 -13509.4 -37.0045 22445.3
 07 01 2015  14 56  -14.4477 17924.9 -13509.2 -37.0035 22445.5
 07 01 2015  14 57  -14.4469 17925.1 -13508.8 -37.0025 22445.4
 07 01 2015  14 58  -14.4469 17924.7 -13508.4 -37.0023 22444.8
 07 01 2015  14 59  -14.4462 17924.7 -13508.0 -37.0015 22444.6
 07 01 2015  15 00  -14.4456 17925.3 -13507.7 -37.0000 22444.9
 07 01 2015  15 01  -14.4448 17926.0 -13507.6 -36.9985 22445.4
 07 01 2015  15 02  -14.4441 17926.4 -13507.3 -36.9974 22445.6
 07 01 2015  15 03  -14.4446 17925.9 -13506.7 -36.9970 22444.8
 07 01 2015  15 04  -14.4440 17926.5 -13506.5 -36.9957 22445.1
 07 01 2015  15 05  -14.4431 17926.8 -13506.2 -36.9946 22445.2
 07 01 2015  15 06  -14.4420 17927.1 -13506.0 -36.9937 22445.3
 07 01 2015  15 07  -14.4401 17927.8 -13505.7 -36.9921 22445.8
 07 01 2015  15 08  -14.4387 17928.0 -13505.4 -36.9913 22445.7
 07 01 2015  15 09  -14.4372 17928.5 -13505.2 -36.9900 22446.0
 07 01 2015  15 10  -14.4369 17928.5 -13504.9 -36.9893 22445.7
 07 01 2015  15 11  -14.4361 17928.9 -13504.6 -36.9882 22445.9
 07 01 2015  15 12  -14.4340 17929.6 -13504.4 -36.9867 22446.4
 07 01 2015  15 13  -14.4314 17930.3 -13504.3 -36.9853 22446.9
 07 01 2015  15 14  -14.4306 17930.6 -13504.1 -36.9844 22446.9
 07 01 2015  15 15  -14.4302 17930.8 -13503.8 -36.9836 22446.9
 07 01 2015  15 16  -14.4306 17930.9 -13503.5 -36.9829 22446.8
 07 01 2015  15 17  -14.4305 17930.9 -13503.2 -36.9823 22446.7
 07 01 2015  15 18  -14.4291 17931.6 -13503.1 -36.9810 22447.2
 07 01 2015  15 19  -14.4281 17932.0 -13503.0 -36.9801 22447.4
 07 01 2015  15 20  -14.4279 17932.0 -13502.7 -36.9795 22447.3
 07 01 2015  15 21  -14.4280 17931.7 -13502.4 -36.9794 22446.9
 07 01 2015  15 22  -14.4286 17931.6 -13502.2 -36.9792 22446.6
 07 01 2015  15 23  -14.4294 17931.2 -13502.0 -36.9792 22446.2
 07 01 2015  15 24  -14.4294 17931.4 -13501.8 -36.9787 22446.3
 07 01 2015  15 25  -14.4296 17931.4 -13501.7 -36.9784 22446.2
 07 01 2015  15 26  -14.4297 17931.4 -13501.6 -36.9781 22446.1
 07 01 2015  15 27  -14.4288 17931.6 -13501.5 -36.9777 22446.2
 07 01 2015  15 28  -14.4302 17930.7 -13501.2 -36.9784 22445.3
 07 01 2015  15 29  -14.4316 17929.7 -13500.9 -36.9792 22444.3
 07 01 2015  15 30  -14.4315 17929.6 -13500.8 -36.9792 22444.2
 07 01 2015  15 31  -14.4305 17929.8 -13500.9 -36.9792 22444.5
 07 01 2015  15 32  -14.4319 17929.2 -13500.8 -36.9798 22443.8
 07 01 2015  15 33  -14.4319 17929.4 -13500.7 -36.9794 22444.0
 07 01 2015  15 34  -14.4300 17930.4 -13500.9 -36.9784 22444.9
 07 01 2015  15 35  -14.4275 17931.6 -13501.0 -36.9767 22445.9
 07 01 2015  15 36  -14.4255 17932.9 -13501.1 -36.9749 22447.0
 07 01 2015  15 37  -14.4243 17933.6 -13501.0 -36.9735 22447.5
 07 01 2015  15 38  -14.4221 17934.6 -13501.0 -36.9721 22448.3
 07 01 2015  15 39  -14.4197 17935.5 -13500.8 -36.9703 22448.9
 07 01 2015  15 40  -14.4173 17936.4 -13500.8 -36.9688 22449.6
 07 01 2015  15 41  -14.4162 17937.1 -13500.6 -36.9674 22450.1
 07 01 2015  15 42  -14.4157 17938.0 -13500.5 -36.9658 22450.7
 07 01 2015  15 43  -14.4138 17939.4 -13500.4 -36.9635 22451.8
 07 01 2015  15 44  -14.4127 17939.6 -13500.2 -36.9626 22451.8
 07 01 2015  15 45  -14.4132 17939.0 -13499.8 -36.9627 22451.1
 07 01 2015  15 46  -14.4128 17939.4 -13499.6 -36.9618 22451.3
 07 01 2015  15 47  -14.4118 17940.2 -13499.5 -36.9603 22451.8
 07 01 2015  15 48  -14.4113 17940.8 -13499.4 -36.9593 22452.3
 07 01 2015  15 49  -14.4112 17940.9 -13499.2 -36.9587 22452.2
 07 01 2015  15 50  -14.4114 17941.1 -13499.0 -36.9579 22452.3
 07 01 2015  15 51  -14.4117 17942.0 -13499.0 -36.9567 22453.0
 07 01 2015  15 52  -14.4104 17943.1 -13499.0 -36.9549 22454.0
 07 01 2015  15 53  -14.4090 17944.1 -13499.0 -36.9533 22454.7
 07 01 2015  15 54  -14.4079 17944.4 -13498.8 -36.9525 22454.8
 07 01 2015  15 55  -14.4059 17945.1 -13498.6 -36.9510 22455.2
 07 01 2015  15 56  -14.4035 17946.1 -13498.6 -36.9494 22456.1
 07 01 2015  15 57  -14.4014 17947.0 -13498.6 -36.9480 22456.8
 07 01 2015  15 58  -14.4007 17947.2 -13498.4 -36.9472 22456.8
 07 01 2015  15 59  -14.4001 17947.6 -13498.1 -36.9462 22457.0
 07 01 2015  16 00  -14.4003 17947.8 -13498.0 -36.9457 22457.0
 07 01 2015  16 01  -14.3993 17948.3 -13497.9 -36.9447 22457.4
 07 01 2015  16 02  -14.3983 17948.6 -13497.7 -36.9437 22457.5
 07 01 2015  16 03  -14.3973 17948.9 -13497.5 -36.9429 22457.7
 07 01 2015  16 04  -14.3964 17949.3 -13497.4 -36.9422 22457.9
 07 01 2015  16 05  -14.3958 17949.3 -13497.2 -36.9417 22457.8
 07 01 2015  16 06  -14.3950 17949.2 -13497.0 -36.9415 22457.6
 07 01 2015  16 07  -14.3966 17948.0 -13496.6 -36.9424 22456.4
 07 01 2015  16 08  -14.3980 17947.2 -13496.2 -36.9429 22455.5
 07 01 2015  16 09  -14.3989 17947.3 -13496.1 -36.9426 22455.5
 07 01 2015  16 10  -14.3983 17948.2 -13496.3 -36.9417 22456.3
 07 01 2015  16 11  -14.3962 17949.8 -13496.5 -36.9394 22457.7
 07 01 2015  16 12  -14.3935 17951.0 -13496.5 -36.9377 22458.8
 07 01 2015  16 13  -14.3912 17951.6 -13496.4 -36.9364 22459.1
 07 01 2015  16 14  -14.3896 17951.7 -13496.1 -36.9358 22459.1
 07 01 2015  16 15  -14.3892 17951.3 -13495.9 -36.9359 22458.6
 07 01 2015  16 16  -14.3895 17951.1 -13495.6 -36.9357 22458.3
 07 01 2015  16 17  -14.3896 17951.2 -13495.5 -36.9352 22458.3
 07 01 2015  16 18  -14.3886 17951.9 -13495.5 -36.9343 22458.8
 07 01 2015  16 19  -14.3886 17952.2 -13495.3 -36.9335 22459.0
 07 01 2015  16 20  -14.3882 17952.6 -13495.3 -36.9328 22459.3
 07 01 2015  16 21  -14.3876 17953.3 -13495.2 -36.9316 22459.8
 07 01 2015  16 22  -14.3867 17953.9 -13495.2 -36.9305 22460.3
 07 01 2015  16 23  -14.3862 17954.2 -13495.1 -36.9299 22460.4
 07 01 2015  16 24  -14.3861 17954.4 -13495.0 -36.9293 22460.5
 07 01 2015  16 25  -14.3865 17954.5 -13494.7 -36.9286 22460.4
 07 01 2015  16 26  -14.3865 17954.5 -13494.5 -36.9282 22460.3
 07 01 2015  16 27  -14.3860 17954.9 -13494.5 -36.9276 22460.6
 07 01 2015  16 28  -14.3857 17955.3 -13494.4 -36.9267 22460.9
 07 01 2015  16 29  -14.3848 17955.7 -13494.4 -36.9262 22461.2
 07 01 2015  16 30  -14.3843 17955.7 -13494.4 -36.9260 22461.2
 07 01 2015  16 31  -14.3839 17956.0 -13494.2 -36.9254 22461.3
 07 01 2015  16 32  -14.3836 17956.3 -13494.4 -36.9252 22461.7
 07 01 2015  16 33  -14.3830 17956.6 -13494.2 -36.9244 22461.8
 07 01 2015  16 34  -14.3832 17956.7 -13494.2 -36.9241 22461.9
 07 01 2015  16 35  -14.3835 17957.0 -13494.2 -36.9237 22462.1
 07 01 2015  16 36  -14.3829 17957.6 -13494.3 -36.9229 22462.7
 07 01 2015  16 37  -14.3822 17958.1 -13494.3 -36.9224 22463.1
 07 01 2015  16 38  -14.3811 17958.4 -13494.4 -36.9220 22463.4
 07 01 2015  16 39  -14.3793 17958.7 -13494.4 -36.9216 22463.7
 07 01 2015  16 40  -14.3789 17958.8 -13494.3 -36.9212 22463.6
 07 01 2015  16 41  -14.3788 17959.0 -13494.5 -36.9213 22463.9
 07 01 2015  16 42  -14.3787 17959.2 -13494.4 -36.9209 22464.0
 07 01 2015  16 43  -14.3789 17959.3 -13494.5 -36.9208 22464.1
 07 01 2015  16 44  -14.3780 17959.8 -13494.7 -36.9205 22464.7
 07 01 2015  16 45  -14.3768 17960.5 -13494.8 -36.9196 22465.3
 07 01 2015  16 46  -14.3755 17960.9 -13494.8 -36.9191 22465.6
 07 01 2015  16 47  -14.3744 17961.1 -13494.9 -36.9189 22465.8
 07 01 2015  16 48  -14.3729 17961.5 -13494.9 -36.9183 22466.1
 07 01 2015  16 49  -14.3717 17961.8 -13494.9 -36.9180 22466.4
 07 01 2015  16 50  -14.3712 17961.9 -13495.1 -36.9182 22466.6
 07 01 2015  16 51  -14.3706 17962.2 -13495.2 -36.9177 22466.9
 07 01 2015  16 52  -14.3702 17962.4 -13495.1 -36.9173 22467.0
 07 01 2015  16 53  -14.3701 17962.3 -13495.2 -36.9176 22466.9
 07 01 2015  16 54  -14.3705 17962.0 -13495.1 -36.9179 22466.7
 07 01 2015  16 55  -14.3713 17962.1 -13495.2 -36.9181 22466.8
 07 01 2015  16 56  -14.3716 17962.5 -13495.2 -36.9173 22467.1
 07 01 2015  16 57  -14.3705 17963.2 -13495.3 -36.9166 22467.8
 07 01 2015  16 58  -14.3697 17963.5 -13495.4 -36.9164 22468.0
 07 01 2015  16 59  -14.3690 17963.8 -13495.3 -36.9157 22468.3
 07 01 2015  17 00  -14.3678 17964.3 -13495.3 -36.9149 22468.6
 07 01 2015  17 01  -14.3671 17964.5 -13495.3 -36.9145 22468.8
 07 01 2015  17 02  -14.3669 17964.5 -13495.4 -36.9146 22468.9
 07 01 2015  17 03  -14.3669 17964.7 -13495.3 -36.9142 22469.0
 07 01 2015  17 04  -14.3667 17965.0 -13495.3 -36.9138 22469.2
 07 01 2015  17 05  -14.3667 17965.2 -13495.4 -36.9136 22469.4
 07 01 2015  17 06  -14.3662 17966.1 -13495.5 -36.9125 22470.2
 07 01 2015  17 07  -14.3649 17967.6 -13495.8 -36.9107 22471.6
 07 01 2015  17 08  -14.3630 17969.1 -13496.0 -36.9088 22472.9
 07 01 2015  17 09  -14.3609 17969.7 -13496.0 -36.9080 22473.4
 07 01 2015  17 10  -14.3613 17969.3 -13495.9 -36.9083 22472.9
 07 01 2015  17 11  -14.3618 17969.1 -13495.7 -36.9083 22472.7
 07 01 2015  17 12  -14.3616 17969.5 -13495.7 -36.9077 22473.0
 07 01 2015  17 13  -14.3624 17969.4 -13495.7 -36.9080 22472.9
 07 01 2015  17 14  -14.3638 17969.1 -13495.6 -36.9082 22472.7
 07 01 2015  17 15  -14.3643 17969.3 -13495.7 -36.9080 22472.8
 07 01 2015  17 16  -14.3650 17969.8 -13495.8 -36.9075 22473.3
 07 01 2015  17 17  -14.3652 17970.2 -13496.0 -36.9071 22473.8
 07 01 2015  17 18  -14.3645 17971.3 -13496.1 -36.9056 22474.7
 07 01 2015  17 19  -14.3634 17972.5 -13496.2 -36.9041 22475.7
 07 01 2015  17 20  -14.3624 17973.3 -13496.3 -36.9032 22476.4
 07 01 2015  17 21  -14.3616 17974.1 -13496.4 -36.9020 22477.1
 07 01 2015  17 22  -14.3617 17974.4 -13496.3 -36.9014 22477.3
 07 01 2015  17 23  -14.3619 17974.3 -13496.2 -36.9013 22477.2
 07 01 2015  17 24  -14.3641 17973.5 -13495.9 -36.9019 22476.3
 07 01 2015  17 25  -14.3658 17973.1 -13495.7 -36.9023 22475.9
 07 01 2015  17 26  -14.3669 17973.5 -13495.6 -36.9014 22476.2
 07 01 2015  17 27  -14.3650 17975.2 -13495.9 -36.8994 22477.7
 07 01 2015  17 28  -14.3630 17976.9 -13496.1 -36.8972 22479.2
 07 01 2015  17 29  -14.3586 17979.7 -13496.4 -36.8936 22481.6
 07 01 2015  17 30  -14.3548 17980.9 -13496.4 -36.8917 22482.6
 07 01 2015  17 31  -14.3551 17980.4 -13496.0 -36.8917 22481.9
 07 01 2015  17 32  -14.3552 17980.4 -13495.6 -36.8908 22481.7
 07 01 2015  17 33  -14.3568 17980.3 -13495.4 -36.8904 22481.5
 07 01 2015  17 34  -14.3564 17981.2 -13495.2 -36.8887 22482.0
 07 01 2015  17 35  -14.3542 17982.0 -13495.1 -36.8873 22482.7
 07 01 2015  17 36  -14.3546 17981.7 -13494.8 -36.8873 22482.2
 07 01 2015  17 37  -14.3573 17981.1 -13494.5 -36.8874 22481.6
 07 01 2015  17 38  -14.3588 17981.8 -13494.6 -36.8866 22482.2
 07 01 2015  17 39  -14.3568 17983.4 -13494.6 -36.8842 22483.5
 07 01 2015  17 40  -14.3539 17984.9 -13494.8 -36.8823 22484.8
 07 01 2015  17 41  -14.3528 17986.1 -13494.6 -36.8800 22485.7
 07 01 2015  17 42  -14.3529 17987.0 -13494.5 -36.8785 22486.3
 07 01 2015  17 43  -14.3523 17987.2 -13494.3 -36.8778 22486.4
 07 01 2015  17 44  -14.3526 17986.9 -13494.0 -36.8777 22485.9
 07 01 2015  17 45  -14.3533 17986.4 -13493.7 -36.8777 22485.3
 07 01 2015  17 46  -14.3550 17985.7 -13493.4 -36.8782 22484.6
 07 01 2015  17 47  -14.3557 17985.7 -13493.3 -36.8780 22484.5
 07 01 2015  17 48  -14.3555 17985.7 -13493.1 -36.8775 22484.4
 07 01 2015  17 49  -14.3566 17985.2 -13493.0 -36.8780 22484.0
 07 01 2015  17 50  -14.3573 17985.3 -13493.1 -36.8782 22484.1
 07 01 2015  17 51  -14.3571 17985.5 -13493.0 -36.8778 22484.2
 07 01 2015  17 52  -14.3576 17985.1 -13492.8 -36.8780 22483.8
 07 01 2015  17 53  -14.3593 17984.5 -13492.8 -36.8787 22483.3
 07 01 2015  17 54  -14.3600 17985.0 -13492.7 -36.8779 22483.6
 07 01 2015  17 55  -14.3578 17985.9 -13492.8 -36.8767 22484.4
 07 01 2015  17 56  -14.3564 17986.3 -13492.8 -36.8762 22484.7
 07 01 2015  17 57  -14.3563 17986.6 -13492.8 -36.8756 22485.0
 07 01 2015  17 58  -14.3552 17985.7 -13492.4 -36.8762 22484.0
 07 01 2015  17 59  -14.3567 17982.9 -13491.8 -36.8792 22481.4
 07 01 2015  18 00  -14.3630 17981.0 -13491.5 -36.8815 22479.7
 07 01 2015  18 01  -14.3693 17980.4 -13491.6 -36.8828 22479.3
 07 01 2015  18 02  -14.3705 17980.2 -13491.5 -36.8828 22479.0
 07 01 2015  18 03  -14.3690 17980.2 -13491.8 -36.8833 22479.2
 07 01 2015  18 04  -14.3682 17980.1 -13491.7 -36.8834 22479.1
 07 01 2015  18 05  -14.3691 17980.0 -13491.8 -36.8837 22479.0
 07 01 2015  18 06  -14.3681 17981.1 -13492.1 -36.8825 22480.2
 07 01 2015  18 07  -14.3668 17981.9 -13492.0 -36.8812 22480.7
 07 01 2015  18 08  -14.3627 17983.6 -13492.4 -36.8794 22482.3
 07 01 2015  18 09  -14.3590 17984.6 -13492.5 -36.8782 22483.2
 07 01 2015  18 10  -14.3571 17984.3 -13492.3 -36.8782 22482.9
 07 01 2015  18 11  -14.3590 17983.7 -13492.0 -36.8784 22482.2
 07 01 2015  18 12  -14.3579 17985.3 -13492.2 -36.8764 22483.5
 07 01 2015  18 13  -14.3532 17986.8 -13492.4 -36.8746 22484.9
 07 01 2015  18 14  -14.3518 17987.0 -13492.2 -36.8739 22484.9
 07 01 2015  18 15  -14.3481 17988.8 -13492.5 -36.8717 22486.6
 07 01 2015  18 16  -14.3430 17991.0 -13493.0 -36.8693 22488.6
 07 01 2015  18 17  -14.3417 17990.6 -13492.6 -36.8691 22488.0
 07 01 2015  18 18  -14.3407 17990.5 -13492.4 -36.8687 22487.9
 07 01 2015  18 19  -14.3404 17990.0 -13492.3 -36.8693 22487.4
 07 01 2015  18 20  -14.3403 17989.1 -13491.9 -36.8699 22486.4
 07 01 2015  18 21  -14.3429 17988.5 -13491.9 -36.8710 22485.9
 07 01 2015  18 22  -14.3417 17989.4 -13492.2 -36.8701 22486.8
 07 01 2015  18 23  -14.3399 17989.5 -13492.3 -36.8702 22486.9
 07 01 2015  18 24  -14.3399 17989.3 -13492.3 -36.8704 22486.8
 07 01 2015  18 25  -14.3392 17989.9 -13492.4 -36.8697 22487.4
 07 01 2015  18 26  -14.3375 17990.7 -13492.5 -36.8688 22488.1
 07 01 2015  18 27  -14.3349 17990.8 -13492.6 -36.8689 22488.2
 07 01 2015  18 28  -14.3353 17989.7 -13492.5 -36.8702 22487.3
 07 01 2015  18 29  -14.3362 17989.9 -13492.6 -36.8702 22487.5
 07 01 2015  18 30  -14.3361 17989.7 -13492.7 -36.8706 22487.4
 07 01 2015  18 31  -14.3361 17988.9 -13492.5 -36.8715 22486.7
 07 01 2015  18 32  -14.3360 17989.2 -13492.8 -36.8716 22487.0
 07 01 2015  18 33  -14.3354 17989.7 -13493.0 -36.8713 22487.5
 07 01 2015  18 34  -14.3354 17989.5 -13493.0 -36.8716 22487.4
 07 01 2015  18 35  -14.3346 17989.2 -13493.1 -36.8724 22487.2
 07 01 2015  18 36  -14.3331 17989.1 -13493.2 -36.8726 22487.2
 07 01 2015  18 37  -14.3330 17989.1 -13493.5 -36.8733 22487.4
 07 01 2015  18 38  -14.3334 17989.3 -13493.8 -36.8734 22487.7
 07 01 2015  18 39  -14.3316 17988.9 -13493.9 -36.8743 22487.4
 07 01 2015  18 40  -14.3312 17988.6 -13494.0 -36.8750 22487.2
 07 01 2015  18 41  -14.3324 17989.1 -13494.3 -36.8748 22487.8
 07 01 2015  18 42  -14.3300 17990.6 -13494.8 -36.8736 22489.3
 07 01 2015  18 43  -14.3262 17990.7 -13495.1 -36.8741 22489.6
 07 01 2015  18 44  -14.3284 17989.5 -13494.9 -36.8754 22488.5
 07 01 2015  18 45  -14.3287 17989.8 -13494.9 -36.8749 22488.8
 07 01 2015  18 46  -14.3270 17990.2 -13495.2 -36.8750 22489.3
 07 01 2015  18 47  -14.3264 17990.2 -13495.4 -36.8755 22489.4
 07 01 2015  18 48  -14.3253 17990.6 -13495.7 -36.8754 22489.9
 07 01 2015  18 49  -14.3238 17990.3 -13495.8 -36.8760 22489.7
 07 01 2015  18 50  -14.3248 17987.9 -13495.5 -36.8790 22487.6
 07 01 2015  18 51  -14.3309 17985.3 -13495.2 -36.8826 22485.3
 07 01 2015  18 52  -14.3355 17985.2 -13495.5 -36.8833 22485.4
 07 01 2015  18 53  -14.3323 17986.6 -13496.1 -36.8823 22486.9
 07 01 2015  18 54  -14.3308 17987.5 -13496.5 -36.8819 22487.9
 07 01 2015  18 55  -14.3278 17988.3 -13497.0 -36.8816 22488.8
 07 01 2015  18 56  -14.3272 17988.3 -13497.2 -36.8819 22489.0
 07 01 2015  18 57  -14.3273 17988.5 -13497.3 -36.8819 22489.2
 07 01 2015  18 58  -14.3255 17988.9 -13497.5 -36.8816 22489.6
 07 01 2015  18 59  -14.3260 17987.6 -13497.4 -36.8835 22488.5
 07 01 2015  19 00  -14.3287 17986.5 -13497.3 -36.8850 22487.6
 07 01 2015  19 01  -14.3317 17987.2 -13497.6 -36.8844 22488.3
 07 01 2015  19 02  -14.3263 17991.4 -13498.6 -36.8801 22492.3
 07 01 2015  19 03  -14.3168 17992.6 -13499.0 -36.8791 22493.5
 07 01 2015  19 04  -14.3171 17989.2 -13498.5 -36.8834 22490.5
 07 01 2015  19 05  -14.3252 17987.1 -13498.2 -36.8859 22488.6
 07 01 2015  19 06  -14.3312 17986.5 -13498.2 -36.8868 22488.1
 07 01 2015  19 07  -14.3315 17987.1 -13498.4 -36.8863 22488.7
 07 01 2015  19 08  -14.3311 17988.1 -13499.0 -36.8860 22489.9
 07 01 2015  19 09  -14.3281 17990.4 -13499.8 -36.8840 22492.2
 07 01 2015  19 10  -14.3232 17992.0 -13500.2 -36.8825 22493.8
 07 01 2015  19 11  -14.3208 17992.1 -13500.2 -36.8823 22493.8
 07 01 2015  19 12  -14.3204 17992.0 -13500.1 -36.8822 22493.6
 07 01 2015  19 13  -14.3209 17992.0 -13500.1 -36.8822 22493.6
 07 01 2015  19 14  -14.3213 17992.3 -13500.3 -36.8822 22494.0
 07 01 2015  19 15  -14.3222 17992.2 -13500.3 -36.8824 22493.9
 07 01 2015  19 16  -14.3233 17991.0 -13500.1 -36.8838 22492.9
 07 01 2015  19 17  -14.3262 17989.6 -13499.9 -36.8854 22491.6
 07 01 2015  19 18  -14.3291 17989.6 -13500.0 -36.8858 22491.7
 07 01 2015  19 19  -14.3291 17990.5 -13500.3 -36.8851 22492.6
 07 01 2015  19 20  -14.3274 17991.8 -13500.7 -36.8837 22493.9
 07 01 2015  19 21  -14.3260 17991.2 -13500.8 -36.8849 22493.4
 07 01 2015  19 22  -14.3300 17988.4 -13500.2 -36.8881 22490.8
 07 01 2015  19 23  -14.3345 17987.9 -13500.3 -36.8889 22490.5
 07 01 2015  19 24  -14.3346 17988.7 -13500.7 -36.8886 22491.4
 07 01 2015  19 25  -14.3361 17989.2 -13501.0 -36.8883 22492.0
 07 01 2015  19 26  -14.3319 17992.4 -13501.8 -36.8850 22495.0
 07 01 2015  19 27  -14.3274 17994.6 -13502.3 -36.8827 22497.1
 07 01 2015  19 28  -14.3257 17996.5 -13502.5 -36.8803 22498.7
 07 01 2015  19 29  -14.3210 17999.8 -13503.2 -36.8765 22501.8
 07 01 2015  19 30  -14.3190 18000.0 -13502.8 -36.8756 22501.7
 07 01 2015  19 31  -14.3163 18000.1 -13502.6 -36.8749 22501.7
 07 01 2015  19 32  -14.3155 17998.9 -13502.5 -36.8766 22500.6
 07 01 2015  19 33  -14.3192 17997.1 -13502.0 -36.8782 22498.9
 07 01 2015  19 34  -14.3213 17996.8 -13501.9 -36.8787 22498.6
 07 01 2015  19 35  -14.3218 17997.3 -13502.2 -36.8783 22499.2
 07 01 2015  19 36  -14.3207 17998.1 -13502.6 -36.8779 22500.0
 07 01 2015  19 37  -14.3213 17998.5 -13503.0 -36.8781 22500.6
 07 01 2015  19 38  -14.3202 17999.5 -13503.2 -36.8771 22501.5
 07 01 2015  19 39  -14.3190 17999.9 -13503.5 -36.8770 22502.0
 07 01 2015  19 40  -14.3190 17999.1 -13503.5 -36.8784 22501.4
 07 01 2015  19 41  -14.3234 17998.3 -13503.2 -36.8790 22500.6
 07 01 2015  19 42  -14.3240 17999.2 -13503.6 -36.8784 22501.5
 07 01 2015  19 43  -14.3241 17998.7 -13503.7 -36.8794 22501.2
 07 01 2015  19 44  -14.3270 17997.0 -13503.6 -36.8817 22499.8
 07 01 2015  19 45  -14.3294 17996.5 -13503.7 -36.8827 22499.4
 07 01 2015  19 46  -14.3312 17995.7 -13503.8 -36.8841 22498.8
 07 01 2015  19 47  -14.3335 17994.7 -13503.9 -36.8859 22498.1
 07 01 2015  19 48  -14.3358 17994.2 -13504.2 -36.8872 22497.9
 07 01 2015  19 49  -14.3364 17994.5 -13504.6 -36.8876 22498.3
 07 01 2015  19 50  -14.3369 17994.7 -13505.0 -36.8881 22498.7
 07 01 2015  19 51  -14.3384 17994.6 -13505.2 -36.8887 22498.8
 07 01 2015  19 52  -14.3395 17994.5 -13505.4 -36.8891 22498.8
 07 01 2015  19 53  -14.3409 17994.4 -13505.5 -36.8896 22498.8
 07 01 2015  19 54  -14.3416 17994.3 -13505.7 -36.8902 22498.8
 07 01 2015  19 55  -14.3431 17993.7 -13505.7 -36.8910 22498.4
 07 01 2015  19 56  -14.3456 17993.4 -13505.9 -36.8918 22498.2
 07 01 2015  19 57  -14.3459 17994.8 -13506.3 -36.8906 22499.7
 07 01 2015  19 58  -14.3439 17996.0 -13506.7 -36.8895 22500.8
 07 01 2015  19 59  -14.3430 17995.5 -13506.7 -36.8905 22500.4
 07 01 2015  20 00  -14.3449 17994.5 -13506.5 -36.8915 22499.5
 07 01 2015  20 01  -14.3472 17992.9 -13506.4 -36.8937 22498.2
 07 01 2015  20 02  -14.3506 17990.9 -13506.3 -36.8966 22496.5
 07 01 2015  20 03  -14.3569 17987.7 -13505.9 -36.9006 22493.7
 07 01 2015  20 04  -14.3642 17986.6 -13505.9 -36.9024 22492.8
 07 01 2015  20 05  -14.3618 17988.8 -13507.0 -36.9011 22495.2
 07 01 2015  20 06  -14.3613 17988.7 -13507.1 -36.9016 22495.3
 07 01 2015  20 07  -14.3607 17987.5 -13507.4 -36.9040 22494.5
 07 01 2015  20 08  -14.3627 17987.0 -13507.7 -36.9054 22494.2
 07 01 2015  20 09  -14.3642 17986.5 -13507.8 -36.9064 22493.9
 07 01 2015  20 10  -14.3663 17986.4 -13508.1 -36.9071 22494.0
 07 01 2015  20 11  -14.3663 17988.2 -13508.6 -36.9054 22495.7
 07 01 2015  20 12  -14.3638 17990.2 -13509.4 -36.9040 22497.8
 07 01 2015  20 13  -14.3624 17990.6 -13509.6 -36.9037 22498.2
 07 01 2015  20 14  -14.3624 17990.2 -13509.7 -36.9044 22498.0
 07 01 2015  20 15  -14.3645 17989.2 -13509.4 -36.9055 22497.0
 07 01 2015  20 16  -14.3656 17990.0 -13509.8 -36.9051 22497.8
 07 01 2015  20 17  -14.3643 17989.7 -13509.9 -36.9058 22497.7
 07 01 2015  20 18  -14.3653 17987.3 -13509.6 -36.9088 22495.6
 07 01 2015  20 19  -14.3703 17985.2 -13509.5 -36.9118 22493.8
 07 01 2015  20 20  -14.3736 17984.9 -13509.7 -36.9126 22493.7
 07 01 2015  20 21  -14.3762 17984.8 -13510.0 -36.9135 22493.8
 07 01 2015  20 22  -14.3779 17984.9 -13510.3 -36.9138 22494.1
 07 01 2015  20 23  -14.3788 17985.2 -13510.5 -36.9140 22494.5
 07 01 2015  20 24  -14.3794 17985.5 -13510.8 -36.9140 22494.9
 07 01 2015  20 25  -14.3799 17985.7 -13511.0 -36.9140 22495.2
 07 01 2015  20 26  -14.3793 17986.3 -13511.2 -36.9137 22495.8
 07 01 2015  20 27  -14.3794 17987.0 -13511.5 -36.9131 22496.4
 07 01 2015  20 28  -14.3794 17986.8 -13511.5 -36.9135 22496.4
 07 01 2015  20 29  -14.3802 17986.0 -13511.5 -36.9146 22495.7
 07 01 2015  20 30  -14.3825 17985.0 -13511.3 -36.9157 22494.7
 07 01 2015  20 31  -14.3847 17984.5 -13511.3 -36.9164 22494.4
 07 01 2015  20 32  -14.3868 17984.6 -13511.7 -36.9172 22494.7
 07 01 2015  20 33  -14.3870 17985.7 -13512.0 -36.9163 22495.8
 07 01 2015  20 34  -14.3858 17987.5 -13512.3 -36.9140 22497.4
 07 01 2015  20 35  -14.3836 17989.3 -13512.8 -36.9123 22499.2
 07 01 2015  20 36  -14.3826 17989.6 -13512.9 -36.9119 22499.4
 07 01 2015  20 37  -14.3830 17989.2 -13512.5 -36.9118 22498.9
 07 01 2015  20 38  -14.3842 17988.6 -13512.5 -36.9127 22498.3
 07 01 2015  20 39  -14.3860 17987.5 -13512.3 -36.9139 22497.4
 07 01 2015  20 40  -14.3879 17988.0 -13512.3 -36.9133 22497.8
 07 01 2015  20 41  -14.3872 17989.6 -13512.7 -36.9116 22499.3
 07 01 2015  20 42  -14.3858 17991.0 -13513.1 -36.9101 22500.7
 07 01 2015  20 43  -14.3839 17991.7 -13513.0 -36.9090 22501.2
 07 01 2015  20 44  -14.3838 17990.2 -13512.7 -36.9107 22499.8
 07 01 2015  20 45  -14.3873 17988.2 -13512.2 -36.9127 22497.9
 07 01 2015  20 46  -14.3904 17987.7 -13512.3 -36.9136 22497.5
 07 01 2015  20 47  -14.3917 17987.5 -13512.3 -36.9139 22497.4
 07 01 2015  20 48  -14.3928 17985.4 -13512.1 -36.9167 22495.6
 07 01 2015  20 49  -14.3971 17982.3 -13511.5 -36.9204 22492.8
 07 01 2015  20 50  -14.4024 17979.7 -13511.4 -36.9241 22490.6
 07 01 2015  20 51  -14.4072 17977.7 -13511.4 -36.9272 22489.0
 07 01 2015  20 52  -14.4128 17975.5 -13511.1 -36.9300 22487.1
 07 01 2015  20 53  -14.4176 17974.7 -13511.4 -36.9318 22486.6
 07 01 2015  20 54  -14.4204 17974.9 -13511.7 -36.9320 22487.0
 07 01 2015  20 55  -14.4218 17975.7 -13512.1 -36.9315 22487.9
 07 01 2015  20 56  -14.4206 17975.0 -13512.2 -36.9329 22487.3
 07 01 2015  20 57  -14.4232 17972.2 -13511.8 -36.9364 22484.9
 07 01 2015  20 58  -14.4280 17971.1 -13511.8 -36.9380 22484.0
 07 01 2015  20 59  -14.4306 17970.9 -13512.0 -36.9388 22483.9
 07 01 2015  21 00  -14.4326 17970.0 -13512.1 -36.9403 22483.2
 07 01 2015  21 01  -14.4349 17974.8 -13513.1 -36.9351 22487.8
 07 01 2015  21 02  -14.4272 17975.1 -13513.1 -36.9347 22488.0
 07 01 2015  21 03  -14.4257 17976.8 -13513.6 -36.9328 22489.6
 07 01 2015  21 04  -14.4215 17981.8 -13514.5 -36.9272 22494.2
 07 01 2015  21 05  -14.4141 17985.5 -13515.1 -36.9227 22497.4
 07 01 2015  21 06  -14.4083 17985.1 -13514.7 -36.9225 22496.9
 07 01 2015  21 07  -14.4072 17984.0 -13514.2 -36.9233 22495.7
 07 01 2015  21 08  -14.4088 17983.9 -13514.0 -36.9230 22495.5
 07 01 2015  21 09  -14.4124 17984.1 -13513.9 -36.9225 22495.6
 07 01 2015  21 10  -14.4138 17987.9 -13514.2 -36.9172 22498.9
 07 01 2015  21 11  -14.4071 17995.6 -13515.4 -36.9079 22505.7
 07 01 2015  21 12  -14.3937 18002.0 -13516.3 -36.8999 22511.3
 07 01 2015  21 13  -14.3805 18004.2 -13516.3 -36.8965 22513.1
 07 01 2015  21 14  -14.3781 18002.4 -13515.3 -36.8974 22511.1
 07 01 2015  21 15  -14.3796 17999.3 -13514.1 -36.8997 22507.9
 07 01 2015  21 16  -14.3848 17994.4 -13512.8 -36.9045 22503.2
 07 01 2015  21 17  -14.3924 17989.4 -13511.9 -36.9103 22498.6
 07 01 2015  21 18  -14.3984 17986.3 -13511.7 -36.9146 22496.0
 07 01 2015  21 19  -14.4029 17985.5 -13512.0 -36.9164 22495.6
 07 01 2015  21 20  -14.4068 17985.0 -13512.5 -36.9181 22495.5
 07 01 2015  21 21  -14.4093 17984.5 -13512.4 -36.9189 22495.1
 07 01 2015  21 22  -14.4105 17985.3 -13512.9 -36.9186 22496.0
 07 01 2015  21 23  -14.4114 17985.5 -13513.3 -36.9190 22496.4
 07 01 2015  21 24  -14.4121 17985.6 -13513.3 -36.9188 22496.5
 07 01 2015  21 25  -14.4124 17986.2 -13513.5 -36.9183 22497.0
 07 01 2015  21 26  -14.4126 17986.4 -13513.6 -36.9183 22497.3
 07 01 2015  21 27  -14.4151 17984.5 -13513.2 -36.9203 22495.5
 07 01 2015  21 28  -14.4187 17980.1 -13512.3 -36.9253 22491.5
 07 01 2015  21 29  -14.4225 17977.9 -13512.1 -36.9282 22489.6
 07 01 2015  21 30  -14.4238 17980.1 -13512.8 -36.9263 22491.8
 07 01 2015  21 31  -14.4220 17983.4 -13513.6 -36.9229 22494.9
 07 01 2015  21 32  -14.4175 17987.4 -13514.5 -36.9185 22498.6
 07 01 2015  21 33  -14.4126 17991.1 -13514.9 -36.9138 22501.8
 07 01 2015  21 34  -14.4086 17993.0 -13514.8 -36.9106 22503.3
 07 01 2015  21 35  -14.4057 17993.0 -13514.3 -36.9096 22503.0
 07 01 2015  21 36  -14.4059 17991.9 -13513.8 -36.9103 22501.8
 07 01 2015  21 37  -14.4064 17991.0 -13513.2 -36.9106 22500.7
 07 01 2015  21 38  -14.4076 17989.6 -13512.9 -36.9119 22499.4
 07 01 2015  21 39  -14.4081 17988.2 -13512.6 -36.9136 22498.1
 07 01 2015  21 40  -14.4096 17985.0 -13512.2 -36.9176 22495.4
 07 01 2015  21 41  -14.4133 17981.2 -13511.7 -36.9224 22492.0
 07 01 2015  21 42  -14.4176 17977.7 -13511.5 -36.9273 22489.0
 07 01 2015  21 43  -14.4212 17975.9 -13511.6 -36.9303 22487.7
 07 01 2015  21 44  -14.4228 17975.7 -13512.2 -36.9319 22487.9
 07 01 2015  21 45  -14.4242 17975.3 -13512.9 -36.9338 22487.9
 07 01 2015  21 46  -14.4266 17973.6 -13512.8 -36.9363 22486.6
 07 01 2015  21 47  -14.4291 17972.2 -13513.0 -36.9388 22485.5
 07 01 2015  21 48  -14.4328 17971.0 -13513.1 -36.9409 22484.7
 07 01 2015  21 49  -14.4366 17970.0 -13513.3 -36.9427 22484.0
 07 01 2015  21 50  -14.4382 17969.8 -13513.5 -36.9435 22483.9
 07 01 2015  21 51  -14.4389 17969.9 -13513.8 -36.9439 22484.2
 07 01 2015  21 52  -14.4388 17969.9 -13514.0 -36.9443 22484.3
 07 01 2015  21 53  -14.4392 17969.4 -13514.2 -36.9455 22484.1
 07 01 2015  21 54  -14.4403 17969.3 -13514.3 -36.9460 22484.0
 07 01 2015  21 55  -14.4393 17969.9 -13514.5 -36.9453 22484.6
 07 01 2015  21 56  -14.4373 17970.8 -13514.8 -36.9447 22485.5
 07 01 2015  21 57  -14.4343 17971.8 -13515.1 -36.9438 22486.5
 07 01 2015  21 58  -14.4332 17971.9 -13515.1 -36.9436 22486.5
 07 01 2015  21 59  -14.4380 17967.7 -13514.2 -36.9481 22482.7
 07 01 2015  22 00  -14.4483 17960.7 -13512.8 -36.9559 22476.3
 07 01 2015  22 01  -14.4589 17955.5 -13511.9 -36.9622 22471.6
 07 01 2015  22 02  -14.4645 17954.7 -13512.3 -36.9642 22471.2
 07 01 2015  22 03  -14.4674 17955.1 -13513.1 -36.9651 22472.0
 07 01 2015  22 04  -14.4694 17954.8 -13513.4 -36.9662 22471.9
 07 01 2015  22 05  -14.4689 17955.8 -13513.9 -36.9658 22473.0
 07 01 2015  22 06  -14.4675 17957.7 -13514.5 -36.9641 22474.9
 07 01 2015  22 07  -14.4634 17961.6 -13515.2 -36.9596 22478.4
 07 01 2015  22 08  -14.4572 17965.7 -13516.1 -36.9551 22482.2
 07 01 2015  22 09  -14.4538 17967.8 -13516.1 -36.9518 22483.9
 07 01 2015  22 10  -14.4520 17967.5 -13515.5 -36.9511 22483.4
 07 01 2015  22 11  -14.4510 17967.1 -13515.2 -36.9511 22482.8
 07 01 2015  22 12  -14.4526 17965.6 -13514.5 -36.9519 22481.2
 07 01 2015  22 13  -14.4562 17962.8 -13513.8 -36.9547 22478.5
 07 01 2015  22 14  -14.4596 17961.3 -13513.5 -36.9565 22477.1
 07 01 2015  22 15  -14.4618 17960.8 -13513.4 -36.9571 22476.7
 07 01 2015  22 16  -14.4624 17961.2 -13513.5 -36.9567 22477.1
 07 01 2015  22 17  -14.4622 17961.7 -13513.7 -36.9562 22477.6
 07 01 2015  22 18  -14.4620 17961.8 -13513.7 -36.9562 22477.7
 07 01 2015  22 19  -14.4620 17961.6 -13513.6 -36.9563 22477.5
 07 01 2015  22 20  -14.4618 17961.2 -13513.4 -36.9566 22477.0
 07 01 2015  22 21  -14.4615 17961.0 -13513.5 -36.9570 22477.0
 07 01 2015  22 22  -14.4624 17959.5 -13513.1 -36.9585 22475.5
 07 01 2015  22 23  -14.4656 17957.5 -13512.6 -36.9605 22473.6
 07 01 2015  22 24  -14.4682 17956.2 -13512.4 -36.9622 22472.4
 07 01 2015  22 25  -14.4668 17955.1 -13512.3 -36.9635 22471.5
 07 01 2015  22 26  -14.4657 17955.8 -13512.6 -36.9631 22472.3
 07 01 2015  22 27  -14.4658 17956.0 -13512.8 -36.9632 22472.6
 07 01 2015  22 28  -14.4668 17954.7 -13512.4 -36.9644 22471.2
 07 01 2015  22 29  -14.4676 17954.0 -13512.4 -36.9654 22470.7
 07 01 2015  22 30  -14.4673 17954.6 -13512.6 -36.9650 22471.2
 07 01 2015  22 31  -14.4643 17955.0 -13512.7 -36.9646 22471.7
 07 01 2015  22 32  -14.4606 17956.3 -13513.0 -36.9631 22472.9
 07 01 2015  22 33  -14.4593 17957.6 -13513.1 -36.9613 22474.0
 07 01 2015  22 34  -14.4607 17957.1 -13512.8 -36.9614 22473.4
 07 01 2015  22 35  -14.4616 17956.4 -13512.3 -36.9618 22472.5
 07 01 2015  22 36  -14.4616 17956.1 -13512.3 -36.9620 22472.3
 07 01 2015  22 37  -14.4617 17956.2 -13512.3 -36.9620 22472.4
 07 01 2015  22 38  -14.4608 17955.9 -13512.2 -36.9622 22472.0
 07 01 2015  22 39  -14.4588 17956.1 -13511.9 -36.9613 22472.0
 07 01 2015  22 40  -14.4550 17957.0 -13512.1 -36.9602 22472.9
 07 01 2015  22 41  -14.4521 17957.9 -13512.3 -36.9594 22473.7
 07 01 2015  22 42  -14.4506 17957.6 -13512.0 -36.9591 22473.3
 07 01 2015  22 43  -14.4504 17957.1 -13511.9 -36.9596 22472.8
 07 01 2015  22 44  -14.4500 17956.5 -13511.6 -36.9601 22472.2
 07 01 2015  22 45  -14.4470 17957.0 -13511.8 -36.9595 22472.7
 07 01 2015  22 46  -14.4444 17958.4 -13511.9 -36.9577 22473.9
 07 01 2015  22 47  -14.4415 17959.5 -13512.0 -36.9562 22474.8
 07 01 2015  22 48  -14.4394 17960.2 -13511.9 -36.9550 22475.3
 07 01 2015  22 49  -14.4380 17959.8 -13511.6 -36.9551 22474.8
 07 01 2015  22 50  -14.4353 17960.3 -13511.5 -36.9539 22475.2
 07 01 2015  22 51  -14.4337 17961.8 -13511.6 -36.9519 22476.4
 07 01 2015  22 52  -14.4335 17962.4 -13511.6 -36.9509 22476.9
 07 01 2015  22 53  -14.4330 17962.8 -13511.4 -36.9500 22477.1
 07 01 2015  22 54  -14.4318 17962.8 -13511.2 -36.9495 22477.0
 07 01 2015  22 55  -14.4308 17963.1 -13511.1 -36.9489 22477.2
 07 01 2015  22 56  -14.4297 17963.4 -13511.0 -36.9483 22477.4
 07 01 2015  22 57  -14.4284 17963.9 -13511.1 -36.9476 22477.8
 07 01 2015  22 58  -14.4278 17964.0 -13511.0 -36.9472 22477.8
 07 01 2015  22 59  -14.4270 17964.0 -13511.0 -36.9472 22477.8
 07 01 2015  23 00  -14.4266 17963.6 -13510.8 -36.9475 22477.3
 07 01 2015  23 01  -14.4258 17962.8 -13510.6 -36.9482 22476.6
 07 01 2015  23 02  -14.4255 17961.8 -13510.3 -36.9493 22475.7
 07 01 2015  23 03  -14.4255 17960.9 -13510.2 -36.9505 22474.9
 07 01 2015  23 04  -14.4251 17960.4 -13510.3 -36.9515 22474.5
 07 01 2015  23 05  -14.4239 17959.9 -13510.4 -36.9523 22474.2
 07 01 2015  23 06  -14.4234 17959.4 -13510.5 -36.9533 22473.8
 07 01 2015  23 07  -14.4226 17958.9 -13510.5 -36.9542 22473.4
 07 01 2015  23 08  -14.4229 17958.1 -13510.5 -36.9554 22472.8
 07 01 2015  23 09  -14.4219 17958.0 -13510.5 -36.9556 22472.7
 07 01 2015  23 10  -14.4211 17958.5 -13510.8 -36.9554 22473.3
 07 01 2015  23 11  -14.4219 17958.5 -13511.1 -36.9559 22473.4
 07 01 2015  23 12  -14.4230 17957.4 -13510.9 -36.9571 22472.5
 07 01 2015  23 13  -14.4234 17956.7 -13511.0 -36.9584 22472.0
 07 01 2015  23 14  -14.4239 17956.8 -13511.1 -36.9586 22472.1
 07 01 2015  23 15  -14.4242 17956.3 -13511.2 -36.9596 22471.8
 07 01 2015  23 16  -14.4225 17956.5 -13511.4 -36.9596 22472.0
 07 01 2015  23 17  -14.4217 17956.9 -13511.8 -36.9597 22472.7
 07 01 2015  23 18  -14.4254 17956.1 -13511.7 -36.9608 22471.9
 07 01 2015  23 19  -14.4291 17954.1 -13511.4 -36.9633 22470.2
 07 01 2015  23 20  -14.4308 17952.5 -13511.3 -36.9655 22468.8
 07 01 2015  23 21  -14.4308 17951.6 -13511.5 -36.9673 22468.2
 07 01 2015  23 22  -14.4285 17951.3 -13511.8 -36.9683 22468.2
 07 01 2015  23 23  -14.4249 17952.2 -13512.4 -36.9682 22469.2
 07 01 2015  23 24  -14.4222 17953.3 -13512.8 -36.9673 22470.4
 07 01 2015  23 25  -14.4209 17954.8 -13513.3 -36.9660 22471.9
 07 01 2015  23 26  -14.4198 17955.8 -13513.4 -36.9648 22472.7
 07 01 2015  23 27  -14.4184 17955.9 -13513.4 -36.9647 22472.8
 07 01 2015  23 28  -14.4174 17956.0 -13513.4 -36.9643 22472.9
 07 01 2015  23 29  -14.4159 17956.2 -13513.3 -36.9640 22473.0
 07 01 2015  23 30  -14.4143 17956.4 -13513.5 -36.9639 22473.3
 07 01 2015  23 31  -14.4129 17957.4 -13513.7 -36.9629 22474.1
 07 01 2015  23 32  -14.4121 17958.7 -13513.9 -36.9615 22475.3
 07 01 2015  23 33  -14.4124 17959.4 -13514.0 -36.9604 22475.9
 07 01 2015  23 34  -14.4123 17959.6 -13513.9 -36.9599 22476.1
 07 01 2015  23 35  -14.4119 17959.6 -13513.8 -36.9599 22476.0
 07 01 2015  23 36  -14.4110 17959.3 -13513.7 -36.9601 22475.7
 07 01 2015  23 37  -14.4104 17958.8 -13513.5 -36.9604 22475.2
 07 01 2015  23 38  -14.4115 17958.9 -13513.8 -36.9608 22475.4
 07 01 2015  23 39  -14.4118 17959.1 -13513.9 -36.9607 22475.7
 07 01 2015  23 40  -14.4124 17959.3 -13514.0 -36.9606 22475.9
 07 01 2015  23 41  -14.4125 17959.5 -13514.2 -36.9608 22476.2
 07 01 2015  23 42  -14.4118 17959.5 -13514.2 -36.9607 22476.1
 07 01 2015  23 43  -14.4115 17959.3 -13514.2 -36.9611 22476.0
 07 01 2015  23 44  -14.4116 17959.4 -13514.4 -36.9612 22476.2
 07 01 2015  23 45  -14.4121 17959.6 -13514.5 -36.9611 22476.4
 07 01 2015  23 46  -14.4122 17959.9 -13514.5 -36.9607 22476.6
 07 01 2015  23 47  -14.4117 17960.2 -13514.7 -36.9605 22477.0
 07 01 2015  23 48  -14.4116 17960.4 -13514.8 -36.9605 22477.2
 07 01 2015  23 49  -14.4114 17960.5 -13514.8 -36.9605 22477.3
 07 01 2015  23 50  -14.4111 17960.6 -13514.9 -36.9605 22477.5
 07 01 2015  23 51  -14.4110 17960.7 -13514.9 -36.9604 22477.5
 07 01 2015  23 52  -14.4116 17960.7 -13515.1 -36.9606 22477.6
 07 01 2015  23 53  -14.4139 17960.0 -13514.8 -36.9611 22476.9
 07 01 2015  23 54  -14.4161 17959.2 -13514.8 -36.9623 22476.3
 07 01 2015  23 55  -14.4181 17957.9 -13514.7 -36.9642 22475.2
 07 01 2015  23 56  -14.4191 17956.9 -13514.7 -36.9656 22474.4
 07 01 2015  23 57  -14.4192 17956.6 -13514.9 -36.9666 22474.3
 07 01 2015  23 58  -14.4181 17956.7 -13515.3 -36.9673 22474.5
SAO MARTINHO DA SERRA EMBRACE-06 <007> 1 Min. Reported data

 DD MM YYYY  HH MM   D(Deg)  H(nT)   Z(nT)   I(Deg)   F(nT)

 07 01 2015  00 00  -14.4024 17995.3 -13508.3 -36.8939 22501.3
 07 01 2015  00 01  -14.4024 17995.4 -13508.5 -36.8940 22501.4
 07 01 2015  00 02  -14.4027 17995.6 -13508.6 -36.8940 22501.7
 07 01 2015  00 03  -14.4029 17996.1 -13508.7 -36.8936 22502.1
 07 01 2015  00 04  -14.4034 17996.5 -13508.8 -36.8931 22502.5
 07 01 2015  00 05  -14.4036 17997.0 -13508.9 -36.8925 22503.0
 07 01 2015  00 06  -14.4035 17997.5 -13509.0 -36.8919 22503.4
 07 01 2015  00 07  -14.4034 17998.1 -13509.0 -36.8911 22503.9
 07 01 2015  00 08  -14.4037 17998.2 -13509.0 -36.8908 22503.9
 07 01 2015  00 09  -14.4034 17998.2 -13508.9 -36.8907 22503.9
 07 01 2015  00 10  -14.4024 17998.5 -13508.9 -36.8904 22504.1
 07 01 2015  00 11  -14.4037 17998.3 -13508.9 -36.8905 22503.9
 07 01 2015  00 12  -14.4042 17997.8 -13508.7 -36.8909 22503.4
 07 01 2015  00 13  -14.4038 17997.5 -13508.7 -36.8914 22503.2
 07 01 2015  00 14  -14.4035 17997.3 -13508.8 -36.8918 22503.1
 07 01 2015  00 15  -14.4029 17997.1 -13508.8 -36.8922 22503.0
 07 01 2015  00 16  -14.4029 17997.1 -13508.9 -36.8925 22503.0
 07 01 2015  00 17  -14.4042 17996.8 -13508.9 -36.8929 22502.8
 07 01 2015  00 18  -14.4043 17996.4 -13508.9 -36.8935 22502.4
 07 01 2015  00 19  -14.4032 17996.4 -13508.9 -36.8934 22502.4
 07 01 2015  00 20  -14.4021 17996.9 -13509.2 -36.8932 22503.1
 07 01 2015  00 21  -14.4021 17997.6 -13509.4 -36.8926 22503.7
 07 01 2015  00 22  -14.4019 17998.5 -13509.4 -36.8914 22504.4
 07 01 2015  00 23  -14.4025 17999.0 -13509.5 -36.8908 22504.9
 07 01 2015  00 24  -14.4025 17999.3 -13509.4 -36.8900 22505.1
 07 01 2015  00 25  -14.4022 17999.8 -13509.4 -36.8893 22505.5
 07 01 2015  00 26  -14.4022 18000.1 -13509.3 -36.8887 22505.7
 07 01 2015  00 27  -14.4022 18000.1 -13509.3 -36.8885 22505.6
 07 01 2015  00 28  -14.4019 18000.2 -13509.2 -36.8881 22505.7
 07 01 2015  00 29  -14.4017 18000.2 -13509.1 -36.8880 22505.7
 07 01 2015  00 30  -14.4016 18000.1 -13509.1 -36.8882 22505.5
 07 01 2015  00 31  -14.4016 17999.7 -13509.0 -36.8885 22505.2
 07 01 2015  00 32  -14.4022 17999.5 -13508.9 -36.8887 22505.0
 07 01 2015  00 33  -14.4028 17999.5 -13509.0 -36.8888 22505.0
 07 01 2015  00 34  -14.4031 17999.6 -13509.0 -36.8888 22505.0
 07 01 2015  00 35  -14.4031 17999.6 -13509.1 -36.8890 22505.1
 07 01 2015  00 36  -14.4034 17999.6 -13509.1 -36.8889 22505.1
 07 01 2015  00 37  -14.4036 17999.5 -13509.1 -36.8889 22505.1
 07 01 2015  00 38  -14.4033 17999.6 -13509.1 -36.8890 22505.2
 07 01 2015  00 39  -14.4033 17999.7 -13509.1 -36.8887 22505.2
 07 01 2015  00 40  -14.4036 17999.7 -13509.0 -36.8886 22505.2
 07 01 2015  00 41  -14.4039 17999.6 -13509.0 -36.8887 22505.1
 07 01 2015  00 42  -14.4041 17999.6 -13509.0 -36.8887 22505.1
 07 01 2015  00 43  -14.4043 17999.6 -13509.0 -36.8888 22505.1
 07 01 2015  00 44  -14.4043 17999.6 -13509.0 -36.8888 22505.1
 07 01 2015  00 45  -14.4045 17999.5 -13508.9 -36.8888 22504.9
 07 01 2015  00 46  -14.4043 17999.5 -13508.9 -36.8888 22505.0
 07 01 2015  00 47  -14.4043 17999.6 -13508.9 -36.8886 22505.1
 07 01 2015  00 48  -14.4048 17999.5 -13508.9 -36.8888 22505.0
 07 01 2015  00 49  -14.4056 17998.9 -13508.9 -36.8896 22504.4
 07 01 2015  00 50  -14.4059 17998.2 -13508.7 -36.8903 22503.8
 07 01 2015  00 51  -14.4058 17997.9 -13508.7 -36.8908 22503.6
 07 01 2015  00 52  -14.4057 17998.2 -13508.9 -36.8907 22503.9
 07 01 2015  00 53  -14.4059 17998.8 -13509.1 -36.8901 22504.5
 07 01 2015  00 54  -14.4056 17999.5 -13509.3 -36.8895 22505.2
 07 01 2015  00 55  -14.4059 17999.7 -13509.1 -36.8889 22505.2
 07 01 2015  00 56  -14.4066 17999.5 -13509.2 -36.8892 22505.1
 07 01 2015  00 57  -14.4070 17999.4 -13509.0 -36.8890 22504.9
 07 01 2015  00 58  -14.4074 17999.1 -13509.0 -36.8895 22504.7
 07 01 2015  00 59  -14.4075 17998.8 -13509.0 -36.8899 22504.4
 07 01 2015  01 00  -14.4049 18000.0 -13509.2 -36.8886 22505.6
 07 01 2015  01 01  -14.4041 18002.3 -13509.7 -36.8859 22507.7
 07 01 2015  01 02  -14.4049 18004.0 -13509.8 -36.8836 22509.1
 07 01 2015  01 03  -14.4046 18005.8 -13509.9 -36.8811 22510.6
 07 01 2015  01 04  -14.4048 18006.7 -13509.7 -36.8794 22511.2
 07 01 2015  01 05  -14.4042 18006.6 -13509.3 -36.8788 22510.8
 07 01 2015  01 06  -14.4028 18005.9 -13509.1 -36.8793 22510.1
 07 01 2015  01 07  -14.4014 18005.1 -13508.7 -36.8798 22509.3
 07 01 2015  01 08  -14.4003 18004.6 -13508.6 -36.8803 22508.8
 07 01 2015  01 09  -14.3997 18004.2 -13508.7 -36.8810 22508.6
 07 01 2015  01 10  -14.3993 18004.5 -13508.9 -36.8809 22508.9
 07 01 2015  01 11  -14.3999 18004.8 -13509.0 -36.8807 22509.2
 07 01 2015  01 12  -14.4006 18004.7 -13508.9 -36.8809 22509.1
 07 01 2015  01 13  -14.4020 18004.0 -13508.9 -36.8818 22508.5
 07 01 2015  01 14  -14.4030 18002.0 -13508.5 -36.8840 22506.8
 07 01 2015  01 15  -14.4018 18000.0 -13508.3 -36.8867 22505.0
 07 01 2015  01 16  -14.4010 17998.8 -13508.3 -36.8887 22504.0
 07 01 2015  01 17  -14.4018 17998.2 -13508.7 -36.8904 22503.8
 07 01 2015  01 18  -14.4033 17997.9 -13509.1 -36.8914 22503.8
 07 01 2015  01 19  -14.4053 17997.8 -13509.4 -36.8923 22503.8
 07 01 2015  01 20  -14.4055 17997.3 -13509.4 -36.8930 22503.5
 07 01 2015  01 21  -14.4032 17998.5 -13509.8 -36.8921 22504.7
 07 01 2015  01 22  -14.4034 18001.6 -13510.6 -36.8889 22507.6
 07 01 2015  01 23  -14.4058 18004.6 -13511.0 -36.8851 22510.3
 07 01 2015  01 24  -14.4064 18005.3 -13510.8 -36.8836 22510.7
 07 01 2015  01 25  -14.4028 18005.5 -13510.4 -36.8825 22510.7
 07 01 2015  01 26  -14.4000 18006.1 -13510.4 -36.8816 22511.1
 07 01 2015  01 27  -14.3984 18006.7 -13510.3 -36.8806 22511.5
 07 01 2015  01 28  -14.3981 18007.2 -13510.1 -36.8794 22511.9
 07 01 2015  01 29  -14.3982 18007.9 -13510.2 -36.8786 22512.4
 07 01 2015  01 30  -14.3980 18008.2 -13510.2 -36.8780 22512.7
 07 01 2015  01 31  -14.3979 18008.2 -13509.9 -36.8774 22512.5
 07 01 2015  01 32  -14.3982 18007.7 -13509.7 -36.8778 22511.9
 07 01 2015  01 33  -14.3970 18007.7 -13509.7 -36.8779 22512.0
 07 01 2015  01 34  -14.3941 18009.6 -13510.3 -36.8761 22513.8
 07 01 2015  01 35  -14.3921 18011.9 -13510.6 -36.8732 22515.9
 07 01 2015  01 36  -14.3921 18013.3 -13510.7 -36.8712 22517.1
 07 01 2015  01 37  -14.3920 18014.2 -13510.5 -36.8695 22517.6
 07 01 2015  01 38  -14.3917 18014.5 -13510.3 -36.8687 22517.7
 07 01 2015  01 39  -14.3913 18014.1 -13509.9 -36.8685 22517.2
 07 01 2015  01 40  -14.3908 18013.3 -13509.7 -36.8691 22516.4
 07 01 2015  01 41  -14.3901 18012.4 -13509.5 -36.8702 22515.6
 07 01 2015  01 42  -14.3892 18011.5 -13509.4 -36.8715 22514.8
 07 01 2015  01 43  -14.3887 18010.8 -13509.3 -36.8723 22514.3
 07 01 2015  01 44  -14.3880 18010.3 -13509.5 -36.8735 22514.0
 07 01 2015  01 45  -14.3878 18010.0 -13509.6 -36.8741 22513.7
 07 01 2015  01 46  -14.3882 18009.8 -13509.6 -36.8743 22513.6
 07 01 2015  01 47  -14.3884 18009.8 -13509.8 -36.8749 22513.7
 07 01 2015  01 48  -14.3887 18009.6 -13509.9 -36.8754 22513.6
 07 01 2015  01 49  -14.3891 18009.0 -13509.9 -36.8762 22513.1
 07 01 2015  01 50  -14.3881 18009.2 -13510.1 -36.8763 22513.4
 07 01 2015  01 51  -14.3875 18009.5 -13510.2 -36.8761 22513.7
 07 01 2015  01 52  -14.3890 18009.0 -13510.2 -36.8768 22513.3
 07 01 2015  01 53  -14.3901 18008.4 -13510.2 -36.8778 22512.9
 07 01 2015  01 54  -14.3909 18007.2 -13510.1 -36.8793 22511.8
 07 01 2015  01 55  -14.3908 18006.0 -13510.0 -36.8809 22510.8
 07 01 2015  01 56  -14.3906 18005.7 -13510.1 -36.8817 22510.6
 07 01 2015  01 57  -14.3913 18005.8 -13510.5 -36.8823 22510.9
 07 01 2015  01 58  -14.3916 18006.0 -13510.7 -36.8824 22511.2
 07 01 2015  01 59  -14.3917 18006.2 -13510.9 -36.8825 22511.5
 07 01 2015  02 00  -14.3914 18006.5 -13510.9 -36.8822 22511.7
 07 01 2015  02 01  -14.3912 18006.7 -13511.2 -36.8824 22512.1
 07 01 2015  02 02  -14.3913 18006.9 -13511.2 -36.8821 22512.2
 07 01 2015  02 03  -14.3921 18006.8 -13511.2 -36.8823 22512.1
 07 01 2015  02 04  -14.3930 18006.6 -13511.2 -36.8826 22512.0
 07 01 2015  02 05  -14.3930 18006.5 -13511.2 -36.8827 22512.0
 07 01 2015  02 06  -14.3928 18006.8 -13511.3 -36.8825 22512.3
 07 01 2015  02 07  -14.3928 18007.3 -13511.5 -36.8822 22512.7
 07 01 2015  02 08  -14.3928 18007.7 -13511.6 -36.8818 22513.1
 07 01 2015  02 09  -14.3928 18007.8 -13511.4 -36.8812 22513.1
 07 01 2015  02 10  -14.3924 18007.7 -13511.4 -36.8814 22513.0
 07 01 2015  02 11  -14.3918 18007.7 -13511.5 -36.8816 22513.1
 07 01 2015  02 12  -14.3914 18007.8 -13511.6 -36.8816 22513.1
 07 01 2015  02 13  -14.3911 18008.0 -13511.6 -36.8813 22513.4
 07 01 2015  02 14  -14.3910 18008.5 -13511.7 -36.8807 22513.8
 07 01 2015  02 15  -14.3905 18008.7 -13511.8 -36.8805 22514.0
 07 01 2015  02 16  -14.3906 18008.5 -13511.7 -36.8805 22513.8
 07 01 2015  02 17  -14.3907 18008.4 -13511.7 -36.8808 22513.7
 07 01 2015  02 18  -14.3904 18008.4 -13511.7 -36.8808 22513.8
 07 01 2015  02 19  -14.3908 18008.3 -13511.8 -36.8810 22513.7
 07 01 2015  02 20  -14.3912 18008.2 -13511.6 -36.8808 22513.5
 07 01 2015  02 21  -14.3915 18008.1 -13511.6 -36.8811 22513.5
 07 01 2015  02 22  -14.3918 18008.1 -13511.7 -36.8813 22513.5
 07 01 2015  02 23  -14.3920 18008.1 -13511.8 -36.8815 22513.5
 07 01 2015  02 24  -14.3918 18008.2 -13511.8 -36.8813 22513.6
 07 01 2015  02 25  -14.3918 18008.2 -13511.9 -36.8815 22513.6
 07 01 2015  02 26  -14.3915 18008.0 -13511.8 -36.8817 22513.5
 07 01 2015  02 27  -14.3915 18008.0 -13511.9 -36.8819 22513.6
 07 01 2015  02 28  -14.3920 18007.7 -13511.9 -36.8824 22513.3
 07 01 2015  02 29  -14.3932 18007.1 -13511.9 -36.8833 22512.8
 07 01 2015  02 30  -14.3946 18006.2 -13511.6 -36.8841 22511.9
 07 01 2015  02 31  -14.3944 18006.1 -13511.8 -36.8846 22512.0
 07 01 2015  02 32  -14.3936 18006.4 -13512.1 -36.8845 22512.4
 07 01 2015  02 33  -14.3940 18006.7 -13512.2 -36.8844 22512.7
 07 01 2015  02 34  -14.3941 18007.0 -13512.3 -36.8842 22513.0
 07 01 2015  02 35  -14.3936 18007.5 -13512.4 -36.8837 22513.4
 07 01 2015  02 36  -14.3936 18007.4 -13512.5 -36.8839 22513.4
 07 01 2015  02 37  -14.3938 18007.3 -13512.5 -36.8840 22513.4
 07 01 2015  02 38  -14.3949 18006.8 -13512.3 -36.8845 22512.8
 07 01 2015  02 39  -14.3957 18006.4 -13512.2 -36.8848 22512.4
 07 01 2015  02 40  -14.3961 18006.4 -13512.3 -36.8852 22512.5
 07 01 2015  02 41  -14.3967 18006.3 -13512.2 -36.8852 22512.4
 07 01 2015  02 42  -14.3968 18006.3 -13512.5 -36.8855 22512.5
 07 01 2015  02 43  -14.3963 18006.5 -13512.5 -36.8853 22512.7
 07 01 2015  02 44  -14.3962 18007.0 -13512.6 -36.8849 22513.1
 07 01 2015  02 45  -14.3965 18007.3 -13512.7 -36.8846 22513.4
 07 01 2015  02 46  -14.3966 18007.5 -13512.7 -36.8842 22513.7
 07 01 2015  02 47  -14.3963 18007.8 -13512.8 -36.8840 22513.9
 07 01 2015  02 48  -14.3965 18007.7 -13512.7 -36.8840 22513.8
 07 01 2015  02 49  -14.3966 18007.8 -13512.7 -36.8838 22513.9
 07 01 2015  02 50  -14.3973 18007.9 -13512.7 -36.8837 22513.9
 07 01 2015  02 51  -14.3980 18007.8 -13512.7 -36.8838 22513.9
 07 01 2015  02 52  -14.3981 18007.9 -13512.7 -36.8837 22513.9
 07 01 2015  02 53  -14.3986 18008.0 -13512.7 -36.8836 22514.0
 07 01 2015  02 54  -14.3993 18007.7 -13512.7 -36.8838 22513.8
 07 01 2015  02 55  -14.3996 18007.5 -13512.7 -36.8842 22513.6
 07 01 2015  02 56  -14.4000 18007.2 -13512.7 -36.8846 22513.4
 07 01 2015  02 57  -14.4001 18006.9 -13512.6 -36.8849 22513.1
 07 01 2015  02 58  -14.4002 18006.4 -13512.6 -36.8857 22512.7
 07 01 2015  02 59  -14.4002 18006.1 -13512.5 -36.8860 22512.4
 07 01 2015  03 00  -14.4007 18006.0 -13512.7 -36.8866 22512.4
 07 01 2015  03 01  -14.4010 18006.1 -13512.8 -36.8865 22512.5
 07 01 2015  03 02  -14.4015 18006.3 -13512.9 -36.8865 22512.8
 07 01 2015  03 03  -14.4020 18006.3 -13513.1 -36.8868 22512.9
 07 01 2015  03 04  -14.4021 18006.3 -13513.0 -36.8867 22512.8
 07 01 2015  03 05  -14.4020 18006.6 -13513.0 -36.8863 22513.1
 07 01 2015  03 06  -14.4018 18007.0 -13513.3 -36.8861 22513.6
 07 01 2015  03 07  -14.4017 18007.4 -13513.4 -36.8856 22514.0
 07 01 2015  03 08  -14.4020 18007.5 -13513.3 -36.8854 22514.0
 07 01 2015  03 09  -14.4024 18007.6 -13513.3 -36.8852 22514.1
 07 01 2015  03 10  -14.4027 18007.2 -13513.1 -36.8855 22513.6
 07 01 2015  03 11  -14.4031 18006.3 -13513.0 -36.8866 22512.8
 07 01 2015  03 12  -14.4038 18005.1 -13512.8 -36.8881 22511.8
 07 01 2015  03 13  -14.4044 18003.9 -13512.7 -36.8898 22510.8
 07 01 2015  03 14  -14.4047 18003.3 -13512.9 -36.8909 22510.4
 07 01 2015  03 15  -14.4052 18003.6 -13513.0 -36.8908 22510.7
 07 01 2015  03 16  -14.4057 18004.4 -13513.5 -36.8907 22511.6
 07 01 2015  03 17  -14.4053 18005.6 -13513.7 -36.8893 22512.7
 07 01 2015  03 18  -14.4051 18006.5 -13513.9 -36.8881 22513.5
 07 01 2015  03 19  -14.4050 18007.0 -13513.9 -36.8875 22513.9
 07 01 2015  03 20  -14.4046 18007.7 -13514.0 -36.8865 22514.5
 07 01 2015  03 21  -14.4041 18007.5 -13513.7 -36.8861 22514.2
 07 01 2015  03 22  -14.4043 18006.7 -13513.5 -36.8870 22513.4
 07 01 2015  03 23  -14.4049 18004.8 -13513.1 -36.8891 22511.7
 07 01 2015  03 24  -14.4056 18002.8 -13512.9 -36.8918 22510.0
 07 01 2015  03 25  -14.4077 18000.9 -13512.7 -36.8944 22508.3
 07 01 2015  03 26  -14.4093 17999.2 -13512.8 -36.8970 22507.0
 07 01 2015  03 27  -14.4105 17998.5 -13513.0 -36.8986 22506.7
 07 01 2015  03 28  -14.4112 17998.6 -13513.3 -36.8992 22506.8
 07 01 2015  03 29  -14.4114 17999.8 -13513.8 -36.8982 22508.1
 07 01 2015  03 30  -14.4111 18001.5 -13514.4 -36.8969 22509.9
 07 01 2015  03 31  -14.4105 18002.5 -13514.5 -36.8956 22510.7
 07 01 2015  03 32  -14.4098 18002.6 -13514.4 -36.8953 22510.7
 07 01 2015  03 33  -14.4095 18002.3 -13514.2 -36.8953 22510.4
 07 01 2015  03 34  -14.4093 18002.0 -13514.1 -36.8954 22510.1
 07 01 2015  03 35  -14.4099 18001.8 -13514.0 -36.8956 22509.8
 07 01 2015  03 36  -14.4106 18001.6 -13514.1 -36.8961 22509.7
 07 01 2015  03 37  -14.4116 18001.6 -13514.1 -36.8961 22509.8
 07 01 2015  03 38  -14.4124 18001.7 -13514.1 -36.8961 22509.8
 07 01 2015  03 39  -14.4124 18001.8 -13514.2 -36.8960 22510.0
 07 01 2015  03 40  -14.4125 18002.2 -13514.3 -36.8956 22510.3
 07 01 2015  03 41  -14.4124 18002.4 -13514.3 -36.8952 22510.5
 07 01 2015  03 42  -14.4126 18002.4 -13514.3 -36.8951 22510.5
 07 01 2015  03 43  -14.4128 18002.4 -13514.3 -36.8952 22510.5
 07 01 2015  03 44  -14.4129 18002.7 -13514.2 -36.8947 22510.7
 07 01 2015  03 45  -14.4133 18002.9 -13514.1 -36.8942 22510.8
 07 01 2015  03 46  -14.4139 18003.0 -13514.3 -36.8943 22511.0
 07 01 2015  03 47  -14.4143 18003.2 -13514.1 -36.8938 22511.0
 07 01 2015  03 48  -14.4144 18003.2 -13514.1 -36.8936 22511.0
 07 01 2015  03 49  -14.4144 18002.9 -13514.0 -36.8938 22510.7
 07 01 2015  03 50  -14.4142 18003.3 -13514.0 -36.8934 22511.0
 07 01 2015  03 51  -14.4141 18003.5 -13514.1 -36.8931 22511.3
 07 01 2015  03 52  -14.4142 18004.0 -13514.1 -36.8923 22511.7
 07 01 2015  03 53  -14.4145 18004.1 -13514.0 -36.8920 22511.6
 07 01 2015  03 54  -14.4141 18004.4 -13514.1 -36.8919 22512.0
 07 01 2015  03 55  -14.4139 18004.2 -13514.0 -36.8918 22511.8
 07 01 2015  03 56  -14.4135 18004.1 -13513.8 -36.8917 22511.6
 07 01 2015  03 57  -14.4131 18004.1 -13513.9 -36.8919 22511.6
 07 01 2015  03 58  -14.4132 18004.0 -13513.8 -36.8917 22511.5
 07 01 2015  03 59  -14.4128 18004.5 -13513.9 -36.8911 22512.0
 07 01 2015  04 00  -14.4134 18004.2 -13513.7 -36.8913 22511.6
 07 01 2015  04 01  -14.4136 18004.3 -13513.8 -36.8912 22511.7
 07 01 2015  04 02  -14.4137 18004.2 -13513.6 -36.8912 22511.5
 07 01 2015  04 03  -14.4144 18004.0 -13513.6 -36.8913 22511.4
 07 01 2015  04 04  -14.4146 18004.3 -13513.7 -36.8910 22511.6
 07 01 2015  04 05  -14.4156 18004.2 -13513.7 -36.8912 22511.6
 07 01 2015  04 06  -14.4158 18004.8 -13513.7 -36.8904 22512.1
 07 01 2015  04 07  -14.4164 18004.8 -13513.6 -36.8903 22512.0
 07 01 2015  04 08  -14.4167 18004.9 -13513.5 -36.8899 22512.0
 07 01 2015  04 09  -14.4170 18005.2 -13513.7 -36.8898 22512.4
 07 01 2015  04 10  -14.4173 18005.8 -13513.8 -36.8890 22512.9
 07 01 2015  04 11  -14.4175 18006.6 -13513.8 -36.8879 22513.6
 07 01 2015  04 12  -14.4178 18007.1 -13513.8 -36.8870 22513.9
 07 01 2015  04 13  -14.4181 18007.4 -13513.7 -36.8864 22514.1
 07 01 2015  04 14  -14.4185 18007.1 -13513.5 -36.8865 22513.8
 07 01 2015  04 15  -14.4191 18006.6 -13513.3 -36.8868 22513.2
 07 01 2015  04 16  -14.4196 18006.3 -13513.2 -36.8871 22512.9
 07 01 2015  04 17  -14.4200 18006.1 -13513.2 -36.8873 22512.8
 07 01 2015  04 18  -14.4205 18005.9 -13513.2 -36.8877 22512.7
 07 01 2015  04 19  -14.4210 18006.2 -13513.2 -36.8873 22512.9
 07 01 2015  04 20  -14.4210 18006.9 -13513.3 -36.8865 22513.5
 07 01 2015  04 21  -14.4210 18007.3 -13513.4 -36.8858 22513.9
 07 01 2015  04 22  -14.4212 18007.6 -13513.4 -36.8855 22514.1
 07 01 2015  04 23  -14.4216 18007.9 -13513.4 -36.8851 22514.4
 07 01 2015  04 24  -14.4220 18007.5 -13513.2 -36.8852 22514.0
 07 01 2015  04 25  -14.4219 18007.6 -13513.0 -36.8847 22513.8
 07 01 2015  04 26  -14.4220 18007.7 -13513.1 -36.8848 22514.0
 07 01 2015  04 27  -14.4219 18008.1 -13513.2 -36.8842 22514.4
 07 01 2015  04 28  -14.4214 18008.8 -13513.2 -36.8832 22514.9
 07 01 2015  04 29  -14.4212 18008.8 -13513.1 -36.8830 22514.9
 07 01 2015  04 30  -14.4208 18009.1 -13513.0 -36.8824 22515.1
 07 01 2015  04 31  -14.4203 18009.5 -13513.0 -36.8817 22515.4
 07 01 2015  04 32  -14.4199 18009.7 -13513.0 -36.8814 22515.5
 07 01 2015  04 33  -14.4196 18009.8 -13513.0 -36.8814 22515.6
 07 01 2015  04 34  -14.4193 18010.1 -13513.0 -36.8809 22515.9
 07 01 2015  04 35  -14.4194 18010.1 -13512.9 -36.8806 22515.8
 07 01 2015  04 36  -14.4195 18010.1 -13512.9 -36.8805 22515.8
 07 01 2015  04 37  -14.4197 18010.1 -13512.8 -36.8804 22515.8
 07 01 2015  04 38  -14.4197 18009.9 -13512.6 -36.8804 22515.5
 07 01 2015  04 39  -14.4196 18009.7 -13512.6 -36.8806 22515.3
 07 01 2015  04 40  -14.4198 18009.5 -13512.5 -36.8809 22515.1
 07 01 2015  04 41  -14.4200 18009.2 -13512.5 -36.8814 22514.9
 07 01 2015  04 42  -14.4202 18008.8 -13512.4 -36.8816 22514.5
 07 01 2015  04 43  -14.4203 18008.8 -13512.6 -36.8820 22514.5
 07 01 2015  04 44  -14.4207 18008.8 -13512.5 -36.8820 22514.5
 07 01 2015  04 45  -14.4210 18008.9 -13512.6 -36.8820 22514.7
 07 01 2015  04 46  -14.4213 18009.0 -13512.7 -36.8819 22514.8
 07 01 2015  04 47  -14.4214 18009.3 -13512.6 -36.8813 22515.0
 07 01 2015  04 48  -14.4214 18009.6 -13512.6 -36.8807 22515.2
 07 01 2015  04 49  -14.4213 18009.8 -13512.7 -36.8807 22515.5
 07 01 2015  04 50  -14.4211 18009.9 -13512.7 -36.8806 22515.6
 07 01 2015  04 51  -14.4208 18010.0 -13512.6 -36.8803 22515.5
 07 01 2015  04 52  -14.4207 18009.9 -13512.7 -36.8804 22515.5
 07 01 2015  04 53  -14.4206 18009.7 -13512.5 -36.8804 22515.3
 07 01 2015  04 54  -14.4207 18009.7 -13512.6 -36.8806 22515.3
 07 01 2015  04 55  -14.4209 18009.5 -13512.4 -36.8806 22515.1
 07 01 2015  04 56  -14.4212 18009.5 -13512.5 -36.8806 22515.1
 07 01 2015  04 57  -14.4213 18009.4 -13512.5 -36.8809 22515.0
 07 01 2015  04 58  -14.4213 18009.1 -13512.5 -36.8812 22514.8
 07 01 2015  04 59  -14.4213 18009.1 -13512.5 -36.8814 22514.8
 07 01 2015  05 00  -14.4216 18008.7 -13512.3 -36.8816 22514.4
 07 01 2015  05 01  -14.4218 18008.5 -13512.5 -36.8822 22514.3
 07 01 2015  05 02  -14.4222 18008.5 -13512.5 -36.8824 22514.3
 07 01 2015  05 03  -14.4221 18008.5 -13512.6 -36.8826 22514.3
 07 01 2015  05 04  -14.4221 18008.5 -13512.4 -36.8822 22514.2
 07 01 2015  05 05  -14.4221 18008.5 -13512.3 -36.8820 22514.2
 07 01 2015  05 06  -14.4221 18008.5 -13512.5 -36.8823 22514.4
 07 01 2015  05 07  -14.4222 18008.7 -13512.4 -36.8818 22514.4
 07 01 2015  05 08  -14.4222 18008.8 -13512.6 -36.8821 22514.6
 07 01 2015  05 09  -14.4221 18008.7 -13512.5 -36.8820 22514.5
 07 01 2015  05 10  -14.4220 18008.4 -13512.4 -36.8822 22514.2
 07 01 2015  05 11  -14.4219 18008.1 -13512.4 -36.8827 22513.9
 07 01 2015  05 12  -14.4217 18008.0 -13512.5 -36.8829 22513.9
 07 01 2015  05 13  -14.4218 18008.1 -13512.5 -36.8828 22514.0
 07 01 2015  05 14  -14.4219 18008.3 -13512.6 -36.8827 22514.2
 07 01 2015  05 15  -14.4218 18008.5 -13512.6 -36.8825 22514.4
 07 01 2015  05 16  -14.4215 18008.7 -13512.6 -36.8822 22514.6
 07 01 2015  05 17  -14.4211 18008.9 -13512.7 -36.8820 22514.7
 07 01 2015  05 18  -14.4210 18009.0 -13512.6 -36.8817 22514.8
 07 01 2015  05 19  -14.4206 18009.0 -13512.7 -36.8818 22514.8
 07 01 2015  05 20  -14.4204 18009.1 -13512.5 -36.8815 22514.8
 07 01 2015  05 21  -14.4201 18009.1 -13512.6 -36.8814 22514.8
 07 01 2015  05 22  -14.4198 18009.1 -13512.6 -36.8815 22514.8
 07 01 2015  05 23  -14.4191 18009.1 -13512.5 -36.8815 22514.8
 07 01 2015  05 24  -14.4186 18009.1 -13512.5 -36.8814 22514.8
 07 01 2015  05 25  -14.4182 18009.4 -13512.6 -36.8812 22515.1
 07 01 2015  05 26  -14.4178 18010.0 -13512.7 -36.8804 22515.6
 07 01 2015  05 27  -14.4177 18010.3 -13512.6 -36.8798 22515.8
 07 01 2015  05 28  -14.4176 18010.2 -13512.7 -36.8801 22515.8
 07 01 2015  05 29  -14.4176 18010.2 -13512.5 -36.8798 22515.6
 07 01 2015  05 30  -14.4174 18010.4 -13512.6 -36.8795 22515.9
 07 01 2015  05 31  -14.4175 18010.7 -13512.6 -36.8790 22516.1
 07 01 2015  05 32  -14.4174 18010.8 -13512.5 -36.8788 22516.1
 07 01 2015  05 33  -14.4177 18010.5 -13512.4 -36.8791 22515.9
 07 01 2015  05 34  -14.4178 18010.2 -13512.4 -36.8794 22515.6
 07 01 2015  05 35  -14.4183 18009.8 -13512.1 -36.8796 22515.1
 07 01 2015  05 36  -14.4187 18009.7 -13512.1 -36.8797 22515.0
 07 01 2015  05 37  -14.4193 18009.6 -13512.2 -36.8800 22515.0
 07 01 2015  05 38  -14.4196 18009.7 -13512.2 -36.8798 22515.1
 07 01 2015  05 39  -14.4202 18009.3 -13512.1 -36.8803 22514.8
 07 01 2015  05 40  -14.4202 18009.1 -13512.1 -36.8806 22514.5
 07 01 2015  05 41  -14.4207 18008.8 -13512.2 -36.8813 22514.4
 07 01 2015  05 42  -14.4209 18008.9 -13512.2 -36.8811 22514.4
 07 01 2015  05 43  -14.4212 18009.0 -13512.3 -36.8811 22514.6
 07 01 2015  05 44  -14.4212 18008.8 -13512.3 -36.8814 22514.4
 07 01 2015  05 45  -14.4212 18008.8 -13512.2 -36.8813 22514.4
 07 01 2015  05 46  -14.4209 18009.0 -13512.1 -36.8807 22514.5
 07 01 2015  05 47  -14.4205 18008.9 -13512.2 -36.8811 22514.5
 07 01 2015  05 48  -14.4206 18008.4 -13512.2 -36.8818 22514.0
 07 01 2015  05 49  -14.4209 18007.8 -13512.0 -36.8824 22513.5
 07 01 2015  05 50  -14.4214 18007.7 -13512.0 -36.8825 22513.4
 07 01 2015  05 51  -14.4218 18007.8 -13512.3 -36.8829 22513.6
 07 01 2015  05 52  -14.4222 18008.0 -13512.3 -36.8827 22513.8
 07 01 2015  05 53  -14.4227 18008.0 -13512.3 -36.8826 22513.8
 07 01 2015  05 54  -14.4231 18007.9 -13512.3 -36.8829 22513.7
 07 01 2015  05 55  -14.4228 18008.2 -13512.4 -36.8825 22514.0
 07 01 2015  05 56  -14.4226 18008.8 -13512.6 -36.8820 22514.5
 07 01 2015  05 57  -14.4219 18009.5 -13512.6 -36.8810 22515.1
 07 01 2015  05 58  -14.4210 18010.1 -13512.6 -36.8800 22515.6
 07 01 2015  05 59  -14.4205 18010.4 -13512.5 -36.8794 22515.8
 07 01 2015  06 00  -14.4203 18010.6 -13512.5 -36.8791 22516.0
 07 01 2015  06 01  -14.4203 18010.7 -13512.4 -36.8786 22516.0
 07 01 2015  06 02  -14.4200 18010.9 -13512.4 -36.8784 22516.2
 07 01 2015  06 03  -14.4198 18011.0 -13512.3 -36.8781 22516.2
 07 01 2015  06 04  -14.4198 18010.7 -13512.2 -36.8782 22515.9
 07 01 2015  06 05  -14.4203 18010.5 -13512.1 -36.8784 22515.7
 07 01 2015  06 06  -14.4206 18010.6 -13512.1 -36.8783 22515.8
 07 01 2015  06 07  -14.4202 18010.0 -13512.0 -36.8789 22515.2
 07 01 2015  06 08  -14.4210 18009.4 -13511.9 -36.8797 22514.6
 07 01 2015  06 09  -14.4213 18009.0 -13511.9 -36.8803 22514.3
 07 01 2015  06 10  -14.4212 18008.5 -13511.9 -36.8809 22513.9
 07 01 2015  06 11  -14.4225 18007.8 -13511.8 -36.8819 22513.3
 07 01 2015  06 12  -14.4234 18007.2 -13511.8 -36.8828 22512.9
 07 01 2015  06 13  -14.4249 18007.2 -13512.0 -36.8832 22512.9
 07 01 2015  06 14  -14.4258 18008.9 -13512.4 -36.8815 22514.6
 07 01 2015  06 15  -14.4236 18011.7 -13513.0 -36.8783 22517.2
 07 01 2015  06 16  -14.4222 18013.4 -13513.1 -36.8760 22518.5
 07 01 2015  06 17  -14.4216 18020.9 -13514.4 -36.8672 22525.3
 07 01 2015  06 18  -14.4122 18029.1 -13515.3 -36.8565 22532.4
 07 01 2015  06 19  -14.4060 18031.8 -13514.6 -36.8510 22534.2
 07 01 2015  06 20  -14.4036 18030.0 -13513.0 -36.8504 22531.8
 07 01 2015  06 21  -14.4033 18026.7 -13511.5 -36.8525 22528.3
 07 01 2015  06 22  -14.4054 18024.1 -13510.7 -36.8548 22525.7
 07 01 2015  06 23  -14.4082 18022.1 -13510.3 -36.8570 22523.9
 07 01 2015  06 24  -14.4110 18021.0 -13510.2 -36.8586 22522.9
 07 01 2015  06 25  -14.4138 18020.6 -13510.3 -36.8594 22522.7
 07 01 2015  06 26  -14.4165 18020.6 -13510.6 -36.8599 22522.9
 07 01 2015  06 27  -14.4180 18020.5 -13510.6 -36.8602 22522.8
 07 01 2015  06 28  -14.4201 18019.1 -13510.3 -36.8617 22521.4
 07 01 2015  06 29  -14.4225 18019.8 -13510.8 -36.8616 22522.3
 07 01 2015  06 30  -14.4221 18022.0 -13511.4 -36.8594 22524.4
 07 01 2015  06 31  -14.4215 18027.0 -13512.3 -36.8537 22528.9
 07 01 2015  06 32  -14.4178 18031.5 -13512.8 -36.8478 22532.8
 07 01 2015  06 33  -14.4161 18032.8 -13512.4 -36.8451 22533.7
 07 01 2015  06 34  -14.4154 18031.8 -13511.5 -36.8447 22532.4
 07 01 2015  06 35  -14.4159 18029.1 -13510.5 -36.8468 22529.6
 07 01 2015  06 36  -14.4176 18027.0 -13510.0 -36.8489 22527.6
 07 01 2015  06 37  -14.4198 18027.3 -13510.0 -36.8486 22527.8
 07 01 2015  06 38  -14.4198 18029.6 -13510.8 -36.8466 22530.2
 07 01 2015  06 39  -14.4193 18031.5 -13510.9 -36.8440 22531.8
 07 01 2015  06 40  -14.4190 18032.2 -13510.9 -36.8429 22532.3
 07 01 2015  06 41  -14.4187 18031.7 -13510.6 -36.8429 22531.7
 07 01 2015  06 42  -14.4187 18031.4 -13510.4 -36.8432 22531.4
 07 01 2015  06 43  -14.4187 18032.1 -13510.5 -36.8421 22532.0
 07 01 2015  06 44  -14.4176 18032.7 -13510.5 -36.8414 22532.5
 07 01 2015  06 45  -14.4178 18032.2 -13510.3 -36.8417 22532.0
 07 01 2015  06 46  -14.4186 18031.4 -13510.1 -36.8426 22531.2
 07 01 2015  06 47  -14.4197 18030.5 -13509.7 -36.8430 22530.2
 07 01 2015  06 48  -14.4202 18029.6 -13509.6 -36.8443 22529.4
 07 01 2015  06 49  -14.4212 18028.6 -13509.6 -36.8457 22528.7
 07 01 2015  06 50  -14.4211 18028.9 -13509.8 -36.8457 22529.0
 07 01 2015  06 51  -14.4203 18029.3 -13510.1 -36.8456 22529.5
 07 01 2015  06 52  -14.4208 18029.2 -13510.1 -36.8458 22529.4
 07 01 2015  06 53  -14.4215 18028.8 -13510.0 -36.8463 22529.0
 07 01 2015  06 54  -14.4222 18028.5 -13509.9 -36.8466 22528.7
 07 01 2015  06 55  -14.4224 18028.6 -13510.1 -36.8468 22528.9
 07 01 2015  06 56  -14.4225 18028.8 -13510.2 -36.8466 22529.1
 07 01 2015  06 57  -14.4220 18028.9 -13510.3 -36.8467 22529.3
 07 01 2015  06 58  -14.4216 18029.0 -13510.2 -36.8464 22529.3
 07 01 2015  06 59  -14.4217 18029.4 -13510.3 -36.8460 22529.7
 07 01 2015  07 00  -14.4213 18028.6 -13510.2 -36.8470 22529.0
 07 01 2015  07 01  -14.4224 18027.9 -13510.1 -36.8478 22528.3
 07 01 2015  07 02  -14.4239 18028.7 -13510.2 -36.8468 22529.1
 07 01 2015  07 03  -14.4244 18030.3 -13510.6 -36.8452 22530.7
 07 01 2015  07 04  -14.4244 18030.2 -13510.6 -36.8453 22530.6
 07 01 2015  07 05  -14.4253 18024.8 -13509.4 -36.8512 22525.4
 07 01 2015  07 06  -14.4276 18017.6 -13508.1 -36.8594 22518.9
 07 01 2015  07 07  -14.4325 18016.9 -13508.7 -36.8618 22518.8
 07 01 2015  07 08  -14.4319 18019.9 -13510.0 -36.8598 22521.9
 07 01 2015  07 09  -14.4314 18023.5 -13511.3 -36.8568 22525.6
 07 01 2015  07 10  -14.4317 18027.1 -13512.1 -36.8530 22528.9
 07 01 2015  07 11  -14.4285 18026.5 -13511.4 -36.8526 22528.0
 07 01 2015  07 12  -14.4295 18025.6 -13510.9 -36.8530 22527.1
 07 01 2015  07 13  -14.4300 18026.2 -13511.2 -36.8525 22527.7
 07 01 2015  07 14  -14.4293 18027.9 -13511.4 -36.8505 22529.2
 07 01 2015  07 15  -14.4272 18032.0 -13512.1 -36.8456 22532.9
 07 01 2015  07 16  -14.4237 18035.0 -13512.3 -36.8414 22535.4
 07 01 2015  07 17  -14.4224 18036.8 -13512.0 -36.8382 22536.6
 07 01 2015  07 18  -14.4212 18039.6 -13512.1 -36.8339 22539.0
 07 01 2015  07 19  -14.4191 18045.4 -13512.7 -36.8264 22543.9
 07 01 2015  07 20  -14.4153 18049.3 -13512.6 -36.8204 22547.0
 07 01 2015  07 21  -14.4136 18047.4 -13511.3 -36.8205 22544.7
 07 01 2015  07 22  -14.4143 18042.4 -13509.6 -36.8246 22539.7
 07 01 2015  07 23  -14.4154 18040.1 -13509.0 -36.8270 22537.5
 07 01 2015  07 24  -14.4160 18040.5 -13509.4 -36.8271 22538.0
 07 01 2015  07 25  -14.4158 18041.7 -13509.7 -36.8261 22539.2
 07 01 2015  07 26  -14.4155 18043.6 -13510.2 -36.8241 22541.0
 07 01 2015  07 27  -14.4149 18045.5 -13510.5 -36.8217 22542.7
 07 01 2015  07 28  -14.4142 18046.6 -13510.4 -36.8199 22543.6
 07 01 2015  07 29  -14.4131 18047.7 -13510.5 -36.8184 22544.4
 07 01 2015  07 30  -14.4103 18047.5 -13510.2 -36.8181 22544.1
 07 01 2015  07 31  -14.4068 18046.6 -13509.9 -36.8188 22543.2
 07 01 2015  07 32  -14.4048 18045.9 -13509.8 -36.8197 22542.6
 07 01 2015  07 33  -14.4027 18045.3 -13509.8 -36.8206 22542.1
 07 01 2015  07 34  -14.4008 18044.7 -13509.8 -36.8216 22541.6
 07 01 2015  07 35  -14.3987 18044.0 -13509.7 -36.8225 22541.0
 07 01 2015  07 36  -14.3961 18042.9 -13509.9 -36.8245 22540.3
 07 01 2015  07 37  -14.3965 18040.8 -13509.9 -36.8277 22538.5
 07 01 2015  07 38  -14.3980 18039.5 -13509.9 -36.8297 22537.5
 07 01 2015  07 39  -14.3979 18039.0 -13510.2 -36.8311 22537.3
 07 01 2015  07 40  -14.4003 18039.3 -13510.7 -36.8317 22537.9
 07 01 2015  07 41  -14.3989 18038.7 -13510.7 -36.8326 22537.4
 07 01 2015  07 42  -14.4012 18040.4 -13511.4 -36.8314 22539.2
 07 01 2015  07 43  -14.3948 18043.3 -13512.1 -36.8285 22541.9
 07 01 2015  07 44  -14.3919 18042.9 -13511.9 -36.8287 22541.4
 07 01 2015  07 45  -14.3938 18040.9 -13511.5 -36.8308 22539.6
 07 01 2015  07 46  -14.3957 18042.1 -13511.8 -36.8297 22540.7
 07 01 2015  07 47  -14.3923 18040.9 -13511.6 -36.8311 22539.6
 07 01 2015  07 48  -14.3965 18035.3 -13510.5 -36.8373 22534.5
 07 01 2015  07 49  -14.4055 18032.0 -13510.4 -36.8420 22531.9
 07 01 2015  07 50  -14.4107 18031.2 -13510.8 -36.8442 22531.4
 07 01 2015  07 51  -14.4142 18029.8 -13511.2 -36.8472 22530.6
 07 01 2015  07 52  -14.4167 18029.7 -13511.8 -36.8484 22530.8
 07 01 2015  07 53  -14.4158 18029.7 -13512.3 -36.8494 22531.1
 07 01 2015  07 54  -14.4153 18029.2 -13512.5 -36.8507 22530.8
 07 01 2015  07 55  -14.4151 18028.8 -13512.8 -36.8518 22530.7
 07 01 2015  07 56  -14.4137 18028.4 -13513.0 -36.8530 22530.6
 07 01 2015  07 57  -14.4146 18026.4 -13512.8 -36.8556 22528.8
 07 01 2015  07 58  -14.4172 18025.8 -13513.2 -36.8572 22528.5
 07 01 2015  07 59  -14.4181 18025.6 -13513.5 -36.8583 22528.6
 07 01 2015  08 00  -14.4200 18026.9 -13514.0 -36.8574 22529.9
 07 01 2015  08 01  -14.4160 18027.9 -13514.6 -36.8568 22531.1
 07 01 2015  08 02  -14.4140 18028.7 -13514.7 -36.8559 22531.8
 07 01 2015  08 03  -14.4112 18029.2 -13514.9 -36.8554 22532.3
 07 01 2015  08 04  -14.4082 18027.9 -13514.5 -36.8569 22531.0
 07 01 2015  08 05  -14.4122 18025.3 -13514.2 -36.8601 22528.8
 07 01 2015  08 06  -14.4195 18023.3 -13514.1 -36.8628 22527.1
 07 01 2015  08 07  -14.4241 18021.9 -13514.2 -36.8653 22526.0
 07 01 2015  08 08  -14.4254 18021.1 -13514.5 -36.8671 22525.5
 07 01 2015  08 09  -14.4293 18019.3 -13514.5 -36.8700 22524.1
 07 01 2015  08 10  -14.4279 18018.7 -13514.8 -36.8715 22523.8
 07 01 2015  08 11  -14.4330 18015.6 -13514.6 -36.8757 22521.2
 07 01 2015  08 12  -14.4309 18015.2 -13515.1 -36.8773 22521.2
 07 01 2015  08 13  -14.4354 18014.7 -13515.4 -36.8788 22521.0
 07 01 2015  08 14  -14.4338 18014.2 -13515.7 -36.8802 22520.8
 07 01 2015  08 15  -14.4375 18012.7 -13515.8 -36.8826 22519.6
 07 01 2015  08 16  -14.4414 18012.5 -13516.1 -36.8836 22519.7
 07 01 2015  08 17  -14.4381 18011.9 -13516.3 -36.8849 22519.3
 07 01 2015  08 18  -14.4417 18010.7 -13516.5 -36.8870 22518.4
 07 01 2015  08 19  -14.4416 18012.1 -13517.1 -36.8861 22519.9
 07 01 2015  08 20  -14.4388 18012.8 -13517.4 -36.8857 22520.6
 07 01 2015  08 21  -14.4386 18012.4 -13517.5 -36.8865 22520.4
 07 01 2015  08 22  -14.4373 18012.8 -13517.6 -36.8861 22520.9
 07 01 2015  08 23  -14.4381 18014.9 -13518.1 -36.8840 22522.8
 07 01 2015  08 24  -14.4330 18016.0 -13518.3 -36.8826 22523.8
 07 01 2015  08 25  -14.4320 18013.3 -13517.5 -36.8852 22521.1
 07 01 2015  08 26  -14.4342 18007.6 -13516.5 -36.8917 22516.0
 07 01 2015  08 27  -14.4408 17999.8 -13515.5 -36.9016 22509.1
 07 01 2015  08 28  -14.4578 17995.1 -13515.3 -36.9085 22505.3
 07 01 2015  08 29  -14.4607 17990.6 -13515.6 -36.9160 22501.8
 07 01 2015  08 30  -14.4596 17987.3 -13516.0 -36.9218 22499.4
 07 01 2015  08 31  -14.4818 17978.5 -13515.5 -36.9344 22492.1
 07 01 2015  08 32  -14.5003 17978.5 -13516.7 -36.9367 22492.8
 07 01 2015  08 33  -14.5004 17984.0 -13518.9 -36.9327 22498.6
 07 01 2015  08 34  -14.4919 17983.7 -13519.3 -36.9341 22498.6
 07 01 2015  08 35  -14.4975 17980.9 -13519.1 -36.9378 22496.2
 07 01 2015  08 36  -14.4958 17979.8 -13519.2 -36.9397 22495.4
 07 01 2015  08 37  -14.4904 17980.8 -13520.0 -36.9398 22496.7
 07 01 2015  08 38  -14.4881 17980.2 -13520.3 -36.9415 22496.3
 07 01 2015  08 39  -14.4876 17979.5 -13520.6 -36.9430 22496.0
 07 01 2015  08 40  -14.4848 17980.1 -13521.0 -36.9430 22496.7
 07 01 2015  08 41  -14.4802 17979.6 -13521.3 -36.9444 22496.5
 07 01 2015  08 42  -14.4783 17978.1 -13521.3 -36.9466 22495.3
 07 01 2015  08 43  -14.4752 17977.4 -13521.4 -36.9481 22494.8
 07 01 2015  08 44  -14.4697 17977.9 -13522.0 -36.9483 22495.5
 07 01 2015  08 45  -14.4646 17978.6 -13522.6 -36.9486 22496.5
 07 01 2015  08 46  -14.4606 17979.0 -13523.1 -36.9489 22497.1
 07 01 2015  08 47  -14.4529 17978.5 -13523.3 -36.9502 22496.8
 07 01 2015  08 48  -14.4508 17975.9 -13523.2 -36.9538 22494.7
 07 01 2015  08 49  -14.4466 17974.1 -13523.2 -36.9567 22493.2
 07 01 2015  08 50  -14.4461 17971.6 -13523.1 -36.9602 22491.2
 07 01 2015  08 51  -14.4380 17973.9 -13524.1 -36.9589 22493.6
 07 01 2015  08 52  -14.4323 17973.1 -13524.5 -36.9609 22493.2
 07 01 2015  08 53  -14.4293 17971.8 -13524.5 -36.9628 22492.1
 07 01 2015  08 54  -14.4290 17967.8 -13524.2 -36.9682 22488.8
 07 01 2015  08 55  -14.4351 17960.6 -13522.8 -36.9765 22482.2
 07 01 2015  08 56  -14.4389 17960.7 -13523.5 -36.9778 22482.7
 07 01 2015  08 57  -14.4387 17964.0 -13525.2 -36.9762 22486.4
 07 01 2015  08 58  -14.4400 17964.3 -13525.5 -36.9765 22486.7
 07 01 2015  08 59  -14.4420 17965.0 -13525.8 -36.9759 22487.5
 07 01 2015  09 00  -14.4415 17965.4 -13526.0 -36.9756 22487.9
 07 01 2015  09 01  -14.4414 17965.1 -13526.1 -36.9763 22487.8
 07 01 2015  09 02  -14.4409 17965.6 -13526.1 -36.9757 22488.2
 07 01 2015  09 03  -14.4389 17968.9 -13526.9 -36.9723 22491.3
 07 01 2015  09 04  -14.4374 17969.1 -13526.9 -36.9720 22491.4
 07 01 2015  09 05  -14.4373 17971.1 -13527.2 -36.9694 22493.3
 07 01 2015  09 06  -14.4383 17971.2 -13527.1 -36.9690 22493.3
 07 01 2015  09 07  -14.4393 17972.6 -13526.9 -36.9666 22494.3
 07 01 2015  09 08  -14.4402 17976.1 -13527.7 -36.9627 22497.5
 07 01 2015  09 09  -14.4378 17979.5 -13528.0 -36.9582 22500.4
 07 01 2015  09 10  -14.4428 17977.4 -13527.0 -36.9593 22498.1
 07 01 2015  09 11  -14.4473 17980.6 -13527.2 -36.9548 22500.8
 07 01 2015  09 12  -14.4510 17982.1 -13527.1 -36.9525 22501.9
 07 01 2015  09 13  -14.4543 17980.6 -13526.0 -36.9525 22500.1
 07 01 2015  09 14  -14.4554 17983.6 -13526.5 -36.9487 22502.8
 07 01 2015  09 15  -14.4617 17987.3 -13526.9 -36.9439 22506.0
 07 01 2015  09 16  -14.4662 17983.0 -13525.2 -36.9472 22501.6
 07 01 2015  09 17  -14.4695 17981.3 -13524.4 -36.9481 22499.7
 07 01 2015  09 18  -14.4751 17980.8 -13524.5 -36.9491 22499.4
 07 01 2015  09 19  -14.4768 17983.2 -13525.1 -36.9466 22501.6
 07 01 2015  09 20  -14.4789 17986.5 -13525.6 -36.9425 22504.6
 07 01 2015  09 21  -14.4803 17985.4 -13525.0 -36.9431 22503.4
 07 01 2015  09 22  -14.4824 17983.7 -13524.3 -36.9441 22501.6
 07 01 2015  09 23  -14.4891 17982.0 -13524.1 -36.9464 22500.0
 07 01 2015  09 24  -14.4916 17982.1 -13524.1 -36.9463 22500.1
 07 01 2015  09 25  -14.4951 17981.5 -13524.1 -36.9473 22499.7
 07 01 2015  09 26  -14.4990 17982.4 -13524.3 -36.9463 22500.5
 07 01 2015  09 27  -14.5016 17982.2 -13524.5 -36.9470 22500.4
 07 01 2015  09 28  -14.5037 17980.5 -13524.1 -36.9485 22498.9
 07 01 2015  09 29  -14.5066 17976.0 -13523.4 -36.9541 22494.9
 07 01 2015  09 30  -14.5073 17974.3 -13523.3 -36.9565 22493.4
 07 01 2015  09 31  -14.5081 17975.5 -13524.3 -36.9566 22495.0
 07 01 2015  09 32  -14.5077 17977.0 -13525.0 -36.9559 22496.6
 07 01 2015  09 33  -14.5080 17977.6 -13525.3 -36.9556 22497.3
 07 01 2015  09 34  -14.5071 17976.8 -13525.2 -36.9566 22496.6
 07 01 2015  09 35  -14.5072 17975.4 -13525.0 -36.9583 22495.3
 07 01 2015  09 36  -14.5041 17974.2 -13525.0 -36.9602 22494.4
 07 01 2015  09 37  -14.5013 17970.6 -13524.5 -36.9647 22491.2
 07 01 2015  09 38  -14.4982 17962.4 -13523.3 -36.9748 22483.9
 07 01 2015  09 39  -14.4938 17959.6 -13523.8 -36.9800 22482.0
 07 01 2015  09 40  -14.4938 17961.6 -13525.6 -36.9808 22484.7
 07 01 2015  09 41  -14.4948 17960.8 -13526.2 -36.9832 22484.4
 07 01 2015  09 42  -14.4965 17960.6 -13526.8 -36.9846 22484.6
 07 01 2015  09 43  -14.5003 17961.7 -13527.6 -36.9845 22486.0
 07 01 2015  09 44  -14.5027 17962.5 -13528.1 -36.9843 22486.9
 07 01 2015  09 45  -14.5042 17962.3 -13528.1 -36.9848 22486.8
 07 01 2015  09 46  -14.5023 17961.9 -13528.2 -36.9854 22486.5
 07 01 2015  09 47  -14.5015 17962.0 -13528.4 -36.9859 22486.7
 07 01 2015  09 48  -14.5004 17964.8 -13529.3 -36.9833 22489.5
 07 01 2015  09 49  -14.5010 17967.5 -13529.8 -36.9802 22492.0
 07 01 2015  09 50  -14.4982 17966.8 -13529.6 -36.9810 22491.2
 07 01 2015  09 51  -14.4980 17966.5 -13529.4 -36.9809 22490.9
 07 01 2015  09 52  -14.4972 17967.2 -13529.7 -36.9805 22491.6
 07 01 2015  09 53  -14.4963 17968.9 -13530.1 -36.9787 22493.2
 07 01 2015  09 54  -14.4968 17968.9 -13530.1 -36.9786 22493.2
 07 01 2015  09 55  -14.4964 17966.6 -13529.6 -36.9812 22491.0
 07 01 2015  09 56  -14.4959 17966.1 -13529.7 -36.9823 22490.7
 07 01 2015  09 57  -14.4943 17965.7 -13529.9 -36.9833 22490.5
 07 01 2015  09 58  -14.4937 17963.4 -13529.6 -36.9862 22488.5
 07 01 2015  09 59  -14.4908 17960.8 -13529.6 -36.9901 22486.5
 07 01 2015  10 00  -14.4875 17959.4 -13530.0 -36.9929 22485.6
 07 01 2015  10 01  -14.4844 17959.1 -13530.6 -36.9948 22485.7
 07 01 2015  10 02  -14.4824 17958.6 -13531.1 -36.9965 22485.6
 07 01 2015  10 03  -14.4835 17959.6 -13531.9 -36.9966 22486.9
 07 01 2015  10 04  -14.4837 17959.9 -13532.0 -36.9964 22487.2
 07 01 2015  10 05  -14.4845 17961.5 -13532.6 -36.9952 22488.8
 07 01 2015  10 06  -14.4885 17963.4 -13533.2 -36.9935 22490.7
 07 01 2015  10 07  -14.4919 17963.8 -13533.1 -36.9925 22490.9
 07 01 2015  10 08  -14.4968 17964.9 -13533.1 -36.9910 22491.8
 07 01 2015  10 09  -14.5023 17966.4 -13533.3 -36.9891 22493.1
 07 01 2015  10 10  -14.5063 17965.6 -13532.7 -36.9890 22492.1
 07 01 2015  10 11  -14.5066 17965.9 -13532.6 -36.9882 22492.3
 07 01 2015  10 12  -14.5063 17964.8 -13532.4 -36.9896 22491.4
 07 01 2015  10 13  -14.5064 17965.2 -13532.5 -36.9893 22491.7
 07 01 2015  10 14  -14.5059 17965.4 -13532.7 -36.9894 22492.0
 07 01 2015  10 15  -14.5091 17962.6 -13532.1 -36.9923 22489.4
 07 01 2015  10 16  -14.5076 17959.8 -13531.8 -36.9960 22487.0
 07 01 2015  10 17  -14.5035 17959.4 -13532.3 -36.9977 22486.9
 07 01 2015  10 18  -14.5025 17956.7 -13532.3 -37.0020 22484.8
 07 01 2015  10 19  -14.5010 17954.3 -13532.4 -37.0057 22482.9
 07 01 2015  10 20  -14.5006 17953.7 -13533.1 -37.0080 22482.9
 07 01 2015  10 21  -14.5039 17955.1 -13534.1 -37.0080 22484.6
 07 01 2015  10 22  -14.5110 17957.6 -13534.8 -37.0057 22487.0
 07 01 2015  10 23  -14.5196 17958.2 -13534.7 -37.0045 22487.4
 07 01 2015  10 24  -14.5224 17956.5 -13534.0 -37.0057 22485.7
 07 01 2015  10 25  -14.5245 17957.4 -13534.2 -37.0046 22486.5
 07 01 2015  10 26  -14.5234 17956.2 -13533.9 -37.0059 22485.4
 07 01 2015  10 27  -14.5238 17955.5 -13533.9 -37.0070 22484.8
 07 01 2015  10 28  -14.5232 17954.5 -13533.9 -37.0084 22483.9
 07 01 2015  10 29  -14.5240 17954.3 -13534.0 -37.0091 22483.9
 07 01 2015  10 30  -14.5208 17954.5 -13534.3 -37.0092 22484.2
 07 01 2015  10 31  -14.5176 17953.7 -13534.3 -37.0106 22483.6
 07 01 2015  10 32  -14.5148 17954.3 -13534.7 -37.0105 22484.3
 07 01 2015  10 33  -14.5144 17950.9 -13534.3 -37.0148 22481.4
 07 01 2015  10 34  -14.5112 17951.1 -13534.9 -37.0157 22481.9
 07 01 2015  10 35  -14.5102 17951.7 -13535.3 -37.0156 22482.6
 07 01 2015  10 36  -14.5126 17953.2 -13535.9 -37.0146 22484.2
 07 01 2015  10 37  -14.5159 17955.4 -13536.4 -37.0123 22486.3
 07 01 2015  10 38  -14.5137 17954.8 -13536.0 -37.0123 22485.5
 07 01 2015  10 39  -14.5120 17954.4 -13535.8 -37.0126 22485.1
 07 01 2015  10 40  -14.5106 17955.2 -13536.0 -37.0115 22485.8
 07 01 2015  10 41  -14.5124 17953.9 -13535.7 -37.0130 22484.6
 07 01 2015  10 42  -14.5094 17953.6 -13535.6 -37.0133 22484.3
 07 01 2015  10 43  -14.5033 17948.5 -13534.7 -37.0193 22479.7
 07 01 2015  10 44  -14.4961 17948.0 -13535.3 -37.0213 22479.7
 07 01 2015  10 45  -14.4975 17945.3 -13535.3 -37.0255 22477.5
 07 01 2015  10 46  -14.4990 17946.2 -13536.2 -37.0259 22478.7
 07 01 2015  10 47  -14.5024 17945.4 -13536.4 -37.0274 22478.2
 07 01 2015  10 48  -14.5057 17947.0 -13536.9 -37.0260 22479.8
 07 01 2015  10 49  -14.5078 17945.2 -13536.4 -37.0279 22478.1
 07 01 2015  10 50  -14.5142 17942.3 -13535.6 -37.0307 22475.3
 07 01 2015  10 51  -14.5150 17940.3 -13535.5 -37.0336 22473.7
 07 01 2015  10 52  -14.5165 17936.7 -13535.1 -37.0382 22470.5
 07 01 2015  10 53  -14.5166 17933.9 -13535.2 -37.0428 22468.3
 07 01 2015  10 54  -14.5207 17934.3 -13536.1 -37.0440 22469.2
 07 01 2015  10 55  -14.5279 17936.3 -13537.0 -37.0428 22471.3
 07 01 2015  10 56  -14.5352 17936.7 -13537.1 -37.0424 22471.7
 07 01 2015  10 57  -14.5396 17939.3 -13537.6 -37.0394 22474.0
 07 01 2015  10 58  -14.5436 17942.6 -13538.0 -37.0351 22477.0
 07 01 2015  10 59  -14.5465 17943.4 -13537.5 -37.0330 22477.3
 07 01 2015  11 00  -14.5508 17943.9 -13537.1 -37.0313 22477.5
 07 01 2015  11 01  -14.5547 17946.4 -13537.3 -37.0279 22479.6
 07 01 2015  11 02  -14.5586 17946.1 -13536.6 -37.0269 22479.0
 07 01 2015  11 03  -14.5597 17946.1 -13536.2 -37.0260 22478.7
 07 01 2015  11 04  -14.5635 17946.4 -13536.0 -37.0252 22478.8
 07 01 2015  11 05  -14.5622 17947.9 -13535.9 -37.0227 22479.9
 07 01 2015  11 06  -14.5602 17946.6 -13535.4 -37.0237 22478.6
 07 01 2015  11 07  -14.5581 17946.6 -13535.6 -37.0240 22478.7
 07 01 2015  11 08  -14.5598 17947.8 -13535.8 -37.0227 22479.8
 07 01 2015  11 09  -14.5564 17948.5 -13535.9 -37.0218 22480.4
 07 01 2015  11 10  -14.5566 17946.7 -13535.5 -37.0237 22478.7
 07 01 2015  11 11  -14.5525 17946.6 -13535.6 -37.0241 22478.7
 07 01 2015  11 12  -14.5492 17947.9 -13536.1 -37.0230 22480.1
 07 01 2015  11 13  -14.5465 17949.6 -13536.5 -37.0214 22481.7
 07 01 2015  11 14  -14.5476 17949.5 -13536.4 -37.0212 22481.5
 07 01 2015  11 15  -14.5469 17950.1 -13536.3 -37.0201 22482.0
 07 01 2015  11 16  -14.5444 17950.2 -13536.4 -37.0200 22482.1
 07 01 2015  11 17  -14.5425 17947.2 -13535.7 -37.0233 22479.3
 07 01 2015  11 18  -14.5392 17947.3 -13536.0 -37.0239 22479.5
 07 01 2015  11 19  -14.5363 17950.0 -13537.1 -37.0217 22482.3
 07 01 2015  11 20  -14.5332 17948.9 -13536.7 -37.0229 22481.2
 07 01 2015  11 21  -14.5348 17946.0 -13536.1 -37.0260 22478.6
 07 01 2015  11 22  -14.5391 17943.4 -13535.9 -37.0295 22476.4
 07 01 2015  11 23  -14.5401 17945.1 -13536.7 -37.0286 22478.1
 07 01 2015  11 24  -14.5410 17943.7 -13536.7 -37.0306 22477.1
 07 01 2015  11 25  -14.5414 17939.2 -13536.0 -37.0364 22473.0
 07 01 2015  11 26  -14.5437 17936.1 -13536.0 -37.0411 22470.6
 07 01 2015  11 27  -14.5466 17936.5 -13537.1 -37.0425 22471.6
 07 01 2015  11 28  -14.5450 17936.9 -13537.7 -37.0434 22472.2
 07 01 2015  11 29  -14.5443 17935.8 -13538.0 -37.0456 22471.5
 07 01 2015  11 30  -14.5444 17932.0 -13537.5 -37.0505 22468.2
 07 01 2015  11 31  -14.5458 17927.7 -13537.2 -37.0564 22464.7
 07 01 2015  11 32  -14.5484 17925.9 -13537.9 -37.0606 22463.6
 07 01 2015  11 33  -14.5509 17924.2 -13538.5 -37.0643 22462.6
 07 01 2015  11 34  -14.5509 17920.2 -13538.4 -37.0703 22459.3
 07 01 2015  11 35  -14.5498 17917.4 -13538.7 -37.0753 22457.3
 07 01 2015  11 36  -14.5498 17914.6 -13539.1 -37.0804 22455.3
 07 01 2015  11 37  -14.5480 17913.7 -13540.0 -37.0836 22455.1
 07 01 2015  11 38  -14.5479 17911.4 -13540.4 -37.0878 22453.5
 07 01 2015  11 39  -14.5485 17907.4 -13540.3 -37.0939 22450.2
 07 01 2015  11 40  -14.5472 17903.0 -13540.4 -37.1009 22446.9
 07 01 2015  11 41  -14.5468 17900.4 -13541.2 -37.1066 22445.2
 07 01 2015  11 42  -14.5440 17899.9 -13542.5 -37.1099 22445.6
 07 01 2015  11 43  -14.5386 17900.7 -13543.9 -37.1115 22447.1
 07 01 2015  11 44  -14.5349 17902.1 -13545.1 -37.1120 22448.9
 07 01 2015  11 45  -14.5316 17902.4 -13545.7 -37.1125 22449.5
 07 01 2015  11 46  -14.5273 17903.3 -13546.2 -37.1122 22450.6
 07 01 2015  11 47  -14.5238 17904.9 -13546.9 -37.1113 22452.3
 07 01 2015  11 48  -14.5215 17905.5 -13547.3 -37.1110 22453.0
 07 01 2015  11 49  -14.5198 17904.6 -13547.2 -37.1122 22452.2
 07 01 2015  11 50  -14.5186 17903.9 -13547.2 -37.1135 22451.6
 07 01 2015  11 51  -14.5196 17902.8 -13547.4 -37.1154 22450.9
 07 01 2015  11 52  -14.5214 17901.0 -13547.3 -37.1179 22449.4
 07 01 2015  11 53  -14.5227 17899.6 -13547.5 -37.1205 22448.4
 07 01 2015  11 54  -14.5219 17900.1 -13548.0 -37.1208 22449.1
 07 01 2015  11 55  -14.5189 17901.4 -13548.7 -37.1202 22450.6
 07 01 2015  11 56  -14.5175 17901.7 -13548.9 -37.1201 22450.9
 07 01 2015  11 57  -14.5175 17901.7 -13549.1 -37.1207 22451.0
 07 01 2015  11 58  -14.5181 17901.2 -13549.0 -37.1212 22450.6
 07 01 2015  11 59  -14.5179 17901.5 -13549.2 -37.1210 22450.9
 07 01 2015  12 00  -14.5166 17900.8 -13549.1 -37.1219 22450.3
 07 01 2015  12 01  -14.5154 17899.9 -13549.0 -37.1233 22449.5
 07 01 2015  12 02  -14.5138 17900.0 -13549.2 -37.1235 22449.8
 07 01 2015  12 03  -14.5132 17900.5 -13549.6 -37.1234 22450.4
 07 01 2015  12 04  -14.5114 17902.3 -13550.0 -37.1214 22452.0
 07 01 2015  12 05  -14.5087 17903.5 -13550.1 -37.1197 22453.1
 07 01 2015  12 06  -14.5064 17904.5 -13550.1 -37.1182 22453.9
 07 01 2015  12 07  -14.5034 17905.8 -13550.1 -37.1164 22454.9
 07 01 2015  12 08  -14.5005 17905.6 -13549.9 -37.1161 22454.6
 07 01 2015  12 09  -14.4973 17906.2 -13549.8 -37.1151 22455.1
 07 01 2015  12 10  -14.4946 17907.2 -13550.0 -37.1140 22455.9
 07 01 2015  12 11  -14.4934 17907.6 -13549.9 -37.1131 22456.2
 07 01 2015  12 12  -14.4923 17907.6 -13549.7 -37.1128 22456.1
 07 01 2015  12 13  -14.4916 17907.1 -13549.5 -37.1131 22455.6
 07 01 2015  12 14  -14.4923 17905.1 -13549.0 -37.1152 22453.7
 07 01 2015  12 15  -14.4922 17905.3 -13549.2 -37.1153 22453.9
 07 01 2015  12 16  -14.4916 17906.4 -13549.7 -37.1146 22455.1
 07 01 2015  12 17  -14.4901 17908.7 -13550.1 -37.1119 22457.2
 07 01 2015  12 18  -14.4890 17908.9 -13549.9 -37.1110 22457.2
 07 01 2015  12 19  -14.4880 17907.9 -13549.4 -37.1116 22456.2
 07 01 2015  12 20  -14.4848 17910.5 -13550.0 -37.1088 22458.6
 07 01 2015  12 21  -14.4830 17910.3 -13549.8 -37.1087 22458.3
 07 01 2015  12 22  -14.4857 17905.5 -13548.4 -37.1133 22453.6
 07 01 2015  12 23  -14.4866 17906.3 -13548.9 -37.1132 22454.6
 07 01 2015  12 24  -14.4865 17909.6 -13549.8 -37.1099 22457.8
 07 01 2015  12 25  -14.4822 17914.2 -13550.5 -37.1043 22461.9
 07 01 2015  12 26  -14.4815 17912.3 -13549.6 -37.1053 22459.8
 07 01 2015  12 27  -14.4838 17908.1 -13548.3 -37.1091 22455.6
 07 01 2015  12 28  -14.4876 17905.2 -13547.7 -37.1124 22453.0
 07 01 2015  12 29  -14.4910 17902.1 -13547.6 -37.1168 22450.5
 07 01 2015  12 30  -14.4932 17901.0 -13547.9 -37.1192 22449.7
 07 01 2015  12 31  -14.4934 17900.1 -13548.3 -37.1214 22449.3
 07 01 2015  12 32  -14.4928 17899.8 -13548.7 -37.1227 22449.3
 07 01 2015  12 33  -14.4911 17901.5 -13549.5 -37.1217 22451.1
 07 01 2015  12 34  -14.4929 17901.0 -13549.4 -37.1222 22450.7
 07 01 2015  12 35  -14.4947 17898.8 -13548.9 -37.1247 22448.6
 07 01 2015  12 36  -14.4953 17897.1 -13548.8 -37.1272 22447.2
 07 01 2015  12 37  -14.4950 17896.4 -13549.0 -37.1285 22446.7
 07 01 2015  12 38  -14.4925 17896.4 -13549.5 -37.1295 22447.1
 07 01 2015  12 39  -14.4917 17896.2 -13549.7 -37.1302 22447.0
 07 01 2015  12 40  -14.4933 17895.3 -13549.7 -37.1317 22446.3
 07 01 2015  12 41  -14.4947 17894.6 -13549.6 -37.1326 22445.7
 07 01 2015  12 42  -14.4956 17894.5 -13549.9 -37.1332 22445.8
 07 01 2015  12 43  -14.4966 17893.8 -13549.9 -37.1344 22445.2
 07 01 2015  12 44  -14.4962 17894.3 -13550.2 -37.1341 22445.8
 07 01 2015  12 45  -14.4947 17895.8 -13550.6 -37.1327 22447.2
 07 01 2015  12 46  -14.4919 17897.2 -13550.8 -37.1309 22448.5
 07 01 2015  12 47  -14.4875 17897.9 -13550.9 -37.1300 22449.1
 07 01 2015  12 48  -14.4849 17897.6 -13550.6 -37.1299 22448.7
 07 01 2015  12 49  -14.4837 17898.5 -13550.7 -37.1288 22449.4
 07 01 2015  12 50  -14.4817 17899.7 -13550.7 -37.1270 22450.5
 07 01 2015  12 51  -14.4787 17901.8 -13550.9 -37.1241 22452.2
 07 01 2015  12 52  -14.4760 17902.9 -13550.7 -37.1219 22453.0
 07 01 2015  12 53  -14.4740 17903.3 -13550.3 -37.1206 22453.0
 07 01 2015  12 54  -14.4727 17903.0 -13549.8 -37.1201 22452.5
 07 01 2015  12 55  -14.4714 17903.0 -13549.5 -37.1194 22452.3
 07 01 2015  12 56  -14.4721 17903.1 -13549.3 -37.1189 22452.3
 07 01 2015  12 57  -14.4737 17902.6 -13548.8 -37.1186 22451.6
 07 01 2015  12 58  -14.4740 17903.0 -13548.7 -37.1179 22451.8
 07 01 2015  12 59  -14.4731 17905.5 -13549.0 -37.1145 22454.0
 07 01 2015  13 00  -14.4733 17907.9 -13549.1 -37.1111 22456.0
 07 01 2015  13 01  -14.4695 17910.4 -13549.0 -37.1069 22457.9
 07 01 2015  13 02  -14.4635 17911.7 -13548.6 -37.1041 22458.7
 07 01 2015  13 03  -14.4607 17912.1 -13548.1 -37.1025 22458.7
 07 01 2015  13 04  -14.4597 17912.8 -13547.6 -37.1003 22459.0
 07 01 2015  13 05  -14.4583 17913.5 -13547.2 -37.0984 22459.3
 07 01 2015  13 06  -14.4587 17912.8 -13546.4 -37.0980 22458.3
 07 01 2015  13 07  -14.4597 17912.0 -13545.7 -37.0976 22457.2
 07 01 2015  13 08  -14.4626 17911.5 -13545.3 -37.0977 22456.6
 07 01 2015  13 09  -14.4650 17911.0 -13544.8 -37.0976 22455.8
 07 01 2015  13 10  -14.4664 17910.9 -13544.4 -37.0968 22455.6
 07 01 2015  13 11  -14.4677 17911.4 -13544.4 -37.0960 22455.9
 07 01 2015  13 12  -14.4693 17911.0 -13543.8 -37.0956 22455.3
 07 01 2015  13 13  -14.4700 17910.3 -13543.4 -37.0957 22454.4
 07 01 2015  13 14  -14.4721 17908.4 -13542.8 -37.0974 22452.6
 07 01 2015  13 15  -14.4746 17907.7 -13542.5 -37.0980 22451.9
 07 01 2015  13 16  -14.4742 17909.4 -13542.9 -37.0961 22453.4
 07 01 2015  13 17  -14.4740 17911.3 -13542.9 -37.0932 22455.0
 07 01 2015  13 18  -14.4737 17913.0 -13542.8 -37.0904 22456.2
 07 01 2015  13 19  -14.4720 17915.0 -13542.7 -37.0870 22457.8
 07 01 2015  13 20  -14.4670 17918.8 -13542.8 -37.0813 22460.9
 07 01 2015  13 21  -14.4620 17922.6 -13542.8 -37.0756 22463.9
 07 01 2015  13 22  -14.4580 17924.7 -13542.4 -37.0715 22465.3
 07 01 2015  13 23  -14.4555 17924.7 -13541.3 -37.0692 22464.7
 07 01 2015  13 24  -14.4555 17923.2 -13540.0 -37.0691 22462.7
 07 01 2015  13 25  -14.4577 17922.4 -13539.1 -37.0684 22461.6
 07 01 2015  13 26  -14.4609 17921.1 -13538.4 -37.0688 22460.0
 07 01 2015  13 27  -14.4649 17919.1 -13537.5 -37.0703 22457.9
 07 01 2015  13 28  -14.4695 17915.7 -13536.6 -37.0737 22454.7
 07 01 2015  13 29  -14.4794 17909.6 -13535.5 -37.0807 22449.1
 07 01 2015  13 30  -14.4915 17903.3 -13534.5 -37.0884 22443.5
 07 01 2015  13 31  -14.4991 17900.5 -13534.6 -37.0928 22441.3
 07 01 2015  13 32  -14.5013 17900.4 -13535.1 -37.0942 22441.5
 07 01 2015  13 33  -14.5020 17900.8 -13535.7 -37.0947 22442.2
 07 01 2015  13 34  -14.5017 17901.5 -13536.3 -37.0949 22443.1
 07 01 2015  13 35  -14.5021 17902.0 -13536.5 -37.0943 22443.7
 07 01 2015  13 36  -14.5027 17902.0 -13536.5 -37.0945 22443.7
 07 01 2015  13 37  -14.5020 17902.1 -13536.5 -37.0943 22443.7
 07 01 2015  13 38  -14.5007 17902.1 -13536.3 -37.0939 22443.7
 07 01 2015  13 39  -14.4998 17902.3 -13536.2 -37.0934 22443.8
 07 01 2015  13 40  -14.5008 17901.7 -13535.8 -37.0935 22443.0
 07 01 2015  13 41  -14.5013 17902.1 -13535.9 -37.0930 22443.4
 07 01 2015  13 42  -14.5012 17903.4 -13535.9 -37.0911 22444.4
 07 01 2015  13 43  -14.4999 17904.8 -13535.8 -37.0887 22445.4
 07 01 2015  13 44  -14.4966 17906.7 -13535.7 -37.0856 22447.0
 07 01 2015  13 45  -14.4945 17907.9 -13535.5 -37.0834 22447.8
 07 01 2015  13 46  -14.4935 17908.7 -13534.9 -37.0810 22448.1
 07 01 2015  13 47  -14.4914 17909.8 -13534.7 -37.0787 22448.8
 07 01 2015  13 48  -14.4900 17910.3 -13534.1 -37.0768 22448.8
 07 01 2015  13 49  -14.4888 17911.0 -13533.7 -37.0748 22449.2
 07 01 2015  13 50  -14.4863 17912.2 -13533.4 -37.0723 22449.9
 07 01 2015  13 51  -14.4840 17913.1 -13532.7 -37.0698 22450.2
 07 01 2015  13 52  -14.4838 17912.8 -13532.2 -37.0691 22449.7
 07 01 2015  13 53  -14.4816 17913.1 -13531.5 -37.0672 22449.6
 07 01 2015  13 54  -14.4801 17913.5 -13531.1 -37.0658 22449.6
 07 01 2015  13 55  -14.4795 17915.2 -13530.8 -37.0626 22450.8
 07 01 2015  13 56  -14.4762 17917.2 -13530.7 -37.0593 22452.3
 07 01 2015  13 57  -14.4751 17917.9 -13530.1 -37.0570 22452.5
 07 01 2015  13 58  -14.4752 17918.3 -13529.4 -37.0549 22452.4
 07 01 2015  13 59  -14.4735 17919.3 -13528.9 -37.0524 22452.9
 07 01 2015  14 00  -14.4740 17919.2 -13528.2 -37.0511 22452.4
 07 01 2015  14 01  -14.4747 17918.8 -13527.5 -37.0502 22451.7
 07 01 2015  14 02  -14.4751 17918.1 -13526.7 -37.0499 22450.6
 07 01 2015  14 03  -14.4739 17918.0 -13526.3 -37.0491 22450.3
 07 01 2015  14 04  -14.4724 17917.9 -13525.9 -37.0485 22449.9
 07 01 2015  14 05  -14.4723 17917.6 -13525.6 -37.0482 22449.5
 07 01 2015  14 06  -14.4721 17917.6 -13525.1 -37.0474 22449.2
 07 01 2015  14 07  -14.4724 17917.4 -13524.7 -37.0468 22448.9
 07 01 2015  14 08  -14.4731 17917.7 -13524.4 -37.0458 22448.9
 07 01 2015  14 09  -14.4741 17917.1 -13523.9 -37.0456 22448.1
 07 01 2015  14 10  -14.4753 17916.0 -13523.3 -37.0461 22446.9
 07 01 2015  14 11  -14.4755 17915.3 -13522.8 -37.0462 22446.1
 07 01 2015  14 12  -14.4744 17915.3 -13522.7 -37.0458 22446.0
 07 01 2015  14 13  -14.4717 17915.7 -13522.6 -37.0451 22446.2
 07 01 2015  14 14  -14.4701 17915.7 -13522.3 -37.0445 22446.1
 07 01 2015  14 15  -14.4687 17915.9 -13522.1 -37.0437 22446.1
 07 01 2015  14 16  -14.4671 17916.8 -13521.9 -37.0420 22446.7
 07 01 2015  14 17  -14.4659 17917.6 -13521.7 -37.0403 22447.2
 07 01 2015  14 18  -14.4651 17918.3 -13521.5 -37.0387 22447.6
 07 01 2015  14 19  -14.4647 17919.1 -13521.2 -37.0370 22448.1
 07 01 2015  14 20  -14.4637 17920.2 -13520.9 -37.0347 22448.8
 07 01 2015  14 21  -14.4629 17920.0 -13520.3 -37.0337 22448.3
 07 01 2015  14 22  -14.4637 17918.5 -13519.4 -37.0342 22446.6
 07 01 2015  14 23  -14.4648 17917.1 -13518.8 -37.0351 22445.1
 07 01 2015  14 24  -14.4656 17916.9 -13518.5 -37.0349 22444.7
 07 01 2015  14 25  -14.4662 17917.2 -13518.3 -37.0340 22444.8
 07 01 2015  14 26  -14.4652 17917.8 -13518.0 -37.0325 22445.1
 07 01 2015  14 27  -14.4644 17917.9 -13517.8 -37.0318 22445.1
 07 01 2015  14 28  -14.4651 17917.3 -13517.2 -37.0315 22444.2
 07 01 2015  14 29  -14.4653 17917.5 -13516.9 -37.0307 22444.2
 07 01 2015  14 30  -14.4645 17918.1 -13516.8 -37.0296 22444.6
 07 01 2015  14 31  -14.4634 17918.6 -13516.5 -37.0281 22444.9
 07 01 2015  14 32  -14.4633 17918.8 -13516.2 -37.0272 22444.8
 07 01 2015  14 33  -14.4618 17919.8 -13516.0 -37.0252 22445.5
 07 01 2015  14 34  -14.4600 17920.6 -13515.8 -37.0239 22446.0
 07 01 2015  14 35  -14.4597 17920.5 -13515.3 -37.0229 22445.6
 07 01 2015  14 36  -14.4591 17921.2 -13515.1 -37.0212 22446.1
 07 01 2015  14 37  -14.4565 17922.7 -13514.9 -37.0187 22447.2
 07 01 2015  14 38  -14.4547 17923.4 -13514.6 -37.0170 22447.6
 07 01 2015  14 39  -14.4533 17924.1 -13514.3 -37.0152 22447.9
 07 01 2015  14 40  -14.4531 17924.1 -13513.8 -37.0142 22447.6
 07 01 2015  14 41  -14.4525 17924.3 -13513.4 -37.0131 22447.5
 07 01 2015  14 42  -14.4520 17924.0 -13513.0 -37.0126 22447.1
 07 01 2015  14 43  -14.4514 17923.6 -13512.4 -37.0123 22446.4
 07 01 2015  14 44  -14.4517 17923.0 -13512.1 -37.0124 22445.8
 07 01 2015  14 45  -14.4527 17922.2 -13511.7 -37.0129 22444.8
 07 01 2015  14 46  -14.4532 17922.0 -13511.4 -37.0127 22444.5
 07 01 2015  14 47  -14.4534 17922.2 -13511.4 -37.0122 22444.7
 07 01 2015  14 48  -14.4536 17922.1 -13511.1 -37.0118 22444.4
 07 01 2015  14 49  -14.4534 17922.3 -13511.0 -37.0113 22444.5
 07 01 2015  14 50  -14.4528 17922.8 -13510.9 -37.0102 22444.9
 07 01 2015  14 51  -14.4529 17923.2 -13510.7 -37.0092 22445.0
 07 01 2015  14 52  -14.4533 17923.6 -13510.4 -37.0080 22445.2
 07 01 2015  14 53  -14.4524 17924.4 -13510.2 -37.0063 22445.7
 07 01 2015  14 54  -14.4509 17924.5 -13509.9 -37.0055 22445.6
 07 01 2015  14 55  -14.4493 17924.5 -13509.4 -37.0045 22445.3
 07 01 2015  14 56  -14.4477 17924.9 -13509.2 -37.0035 22445.5
 07 01 2015  14 57  -14.4469 17925.1 -13508.8 -37.0025 22445.4
 07 01 2015  14 58  -14.4469 17924.7 -13508.4 -37.0023 22444.8
 07 01 2015  14 59  -14.4462 17924.7 -13508.0 -37.0015 22444.6
 07 01 2015  15 00  -14.4456 17925.3 -13507.7 -37.0000 22444.9
 07 01 2015  15 01  -14.4448 17926.0 -13507.6 -36.9985 22445.4
 07 01 2015  15 02  -14.4441 17926.4 -13507.3 -36.9974 22445.6
 07 01 2015  15 03  -14.4446 17925.9 -13506.7 -36.9970 22444.8
 07 01 2015  15 04  -14.4440 17926.5 -13506.5 -36.9957 22445.1
 07 01 2015  15 05  -14.4431 17926.8 -13506.2 -36.9946 22445.2
 07 01 2015  15 06  -14.4420 17927.1 -13506.0 -36.9937 22445.3
 07 01 2015  15 07  -14.4401 17927.8 -13505.7 -36.9921 22445.8
 07 01 2015  15 08  -14.4387 17928.0 -13505.4 -36.9913 22445.7
 07 01 2015  15 09  -14.4372 17928.5 -13505.2 -36.9900 22446.0
 07 01 2015  15 10  -14.4369 17928.5 -13504.9 -36.9893 22445.7
 07 01 2015  15 11  -14.4361 17928.9 -13504.6 -36.9882 22445.9
 07 01 2015  15 12  -14.4340 17929.6 -13504.4 -36.9867 22446.4
 07 01 2015  15 13  -14.4314 17930.3 -13504.3 -36.9853 22446.9
 07 01 2015  15 14  -14.4306 17930.6 -13504.1 -36.9844 22446.9
 07 01 2015  15 15  -14.4302 17930.8 -13503.8 -36.9836 22446.9
 07 01 2015  15 16  -14.4306 17930.9 -13503.5 -36.9829 22446.8
 07 01 2015  15 17  -14.4305 17930.9 -13503.2 -36.9823 22446.7
 07 01 2015  15 18  -14.4291 17931.6 -13503.1 -36.9810 22447.2
 07 01 2015  15 19  -14.4281 17932.0 -13503.0 -36.9801 22447.4
 07 01 2015  15 20  -14.4279 17932.0 -13502.7 -36.9795 22447.3
 07 01 2015  15 21  -14.4280 17931.7 -13502.4 -36.9794 22446.9
 07 01 2015  15 22  -14.4286 17931.6 -13502.2 -36.9792 22446.6
 07 01 2015  15 23  -14.4294 17931.2 -13502.0 -36.9792 22446.2
 07 01 2015  15 24  -14.4294 17931.4 -13501.8 -36.9787 22446.3
 07 01 2015  15 25  -14.4296 17931.4 -13501.7 -36.9784 22446.2
 07 01 2015  15 26  -14.4297 17931.4 -13501.6 -36.9781 22446.1
 07 01 2015  15 27  -14.4288 17931.6 -13501.5 -36.9777 22446.2
 07 01 2015  15 28  -14.4302 17930.7 -13501.2 -36.9784 22445.3
 07 01 2015  15 29  -14.4316 17929.7 -13500.9 -36.9792 22444.3
 07 01 2015  15 30  -14.4315 17929.6 -13500.8 -36.9792 22444.2
 07 01 2015  15 31  -14.4305 17929.8 -13500.9 -36.9792 22444.5
 07 01 2015  15 32  -14.4319 17929.2 -13500.8 -36.9798 22443.8
 07 01 2015  15 33  -14.4319 17929.4 -13500.7 -36.9794 22444.0
 07 01 2015  15 34  -14.4300 17930.4 -13500.9 -36.9784 22444.9
 07 01 2015  15 35  -14.4275 17931.6 -13501.0 -36.9767 22445.9
 07 01 2015  15 36  -14.4255 17932.9 -13501.1 -36.9749 22447.0
 07 01 2015  15 37  -14.4243 17933.6 -13501.0 -36.9735 22447.5
 07 01 2015  15 38  -14.4221 17934.6 -13501.0 -36.9721 22448.3
 07 01 2015  15 39  -14.4197 17935.5 -13500.8 -36.9703 22448.9
 07 01 2015  15 40  -14.4173 17936.4 -13500.8 -36.9688 22449.6
 07 01 2015  15 41  -14.4162 17937.1 -13500.6 -36.9674 22450.1
 07 01 2015  15 42  -14.4157 17938.0 -13500.5 -36.9658 22450.7
 07 01 2015  15 43  -14.4138 17939.4 -13500.4 -36.9635 22451.8
 07 01 2015  15 44  -14.4127 17939.6 -13500.2 -36.9626 22451.8
 07 01 2015  15 45  -14.4132 17939.0 -13499.8 -36.9627 22451.1
 07 01 2015  15 46  -14.4128 17939.4 -13499.6 -36.9618 22451.3
 07 01 2015  15 47  -14.4118 17940.2 -13499.5 -36.9603 22451.8
 07 01 2015  15 48  -14.4113 17940.8 -13499.4 -36.9593 22452.3
 07 01 2015  15 49  -14.4112 17940.9 -13499.2 -36.9587 22452.2
 07 01 2015  15 50  -14.4114 17941.1 -13499.0 -36.9579 22452.3
 07 01 2015  15 51  -14.4117 17942.0 -13499.0 -36.9567 22453.0
 07 01 2015  15 52  -14.4104 17943.1 -13499.0 -36.9549 22454.0
 07 01 2015  15 53  -14.4090 17944.1 -13499.0 -36.9533 22454.7
 07 01 2015  15 54  -14.4079 17944.4 -13498.8 -36.9525 22454.8
 07 01 2015  15 55  -14.4059 17945.1 -13498.6 -36.9510 22455.2
 07 01 2015  15 56  -14.4035 17946.1 -13498.6 -36.9494 22456.1
 07 01 2015  15 57  -14.4014 17947.0 -13498.6 -36.9480 22456.8
 07 01 2015  15 58  -14.4007 17947.2 -13498.4 -36.9472 22456.8
 07 01 2015  15 59  -14.4001 17947.6 -13498.1 -36.9462 22457.0
 07 01 2015  16 00  -14.4003 17947.8 -13498.0 -36.9457 22457.0
 07 01 2015  16 01  -14.3993 17948.3 -13497.9 -36.9447 22457.4
 07 01 2015  16 02  -14.3983 17948.6 -13497.7 -36.9437 22457.5
 07 01 2015  16 03  -14.3973 17948.9 -13497.5 -36.9429 22457.7
 07 01 2015  16 04  -14.3964 17949.3 -13497.4 -36.9422 22457.9
 07 01 2015  16 05  -14.3958 17949.3 -13497.2 -36.9417 22457.8
 07 01 2015  16 06  -14.3950 17949.2 -13497.0 -36.9415 22457.6
 07 01 2015  16 07  -14.3966 17948.0 -13496.6 -36.9424 22456.4
 07 01 2015  16 08  -14.3980 17947.2 -13496.2 -36.9429 22455.5
 07 01 2015  16 09  -14.3989 17947.3 -13496.1 -36.9426 22455.5
 07 01 2015  16 10  -14.3983 17948.2 -13496.3 -36.9417 22456.3
 07 01 2015  16 11  -14.3962 17949.8 -13496.5 -36.9394 22457.7
 07 01 2015  16 12  -14.3935 17951.0 -13496.5 -36.9377 22458.8
 07 01 2015  16 13  -14.3912 17951.6 -13496.4 -36.9364 22459.1
 07 01 2015  16 14  -14.3896 17951.7 -13496.1 -36.9358 22459.1
 07 01 2015  16 15  -14.3892 17951.3 -13495.9 -36.9359 22458.6
 07 01 2015  16 16  -14.3895 17951.1 -13495.6 -36.9357 22458.3
 07 01 2015  16 17  -14.3896 17951.2 -13495.5 -36.9352 22458.3
 07 01 2015  16 18  -14.3886 17951.9 -13495.5 -36.9343 22458.8
 07 01 2015  16 19  -14.3886 17952.2 -13495.3 -36.9335 22459.0
 07 01 2015  16 20  -14.3882 17952.6 -13495.3 -36.9328 22459.3
 07 01 2015  16 21  -14.3876 17953.3 -13495.2 -36.9316 22459.8
 07 01 2015  16 22  -14.3867 17953.9 -13495.2 -36.9305 22460.3
 07 01 2015  16 23  -14.3862 17954.2 -13495.1 -36.9299 22460.4
 07 01 2015  16 24  -14.3861 17954.4 -13495.0 -36.9293 22460.5
 07 01 2015  16 25  -14.3865 17954.5 -13494.7 -36.9286 22460.4
 07 01 2015  16 26  -14.3865 17954.5 -13494.5 -36.9282 22460.3
 07 01 2015  16 27  -14.3860 17954.9 -13494.5 -36.9276 22460.6
 07 01 2015  16 28  -14.3857 17955.3 -13494.4 -36.9267 22460.9
 07 01 2015  16 29  -14.3848 17955.7 -13494.4 -36.9262 22461.2
 07 01 2015  16 30  -14.3843 17955.7 -13494.4 -36.9260 22461.2
 07 01 2015  16 31  -14.3839 17956.0 -13494.2 -36.9254 22461.3
 07 01 2015  16 32  -14.3836 17956.3 -13494.4 -36.9252 22461.7
 07 01 2015  16 33  -14.3830 17956.6 -13494.2 -36.9244 22461.8
 07 01 2015  16 34  -14.3832 17956.7 -13494.2 -36.9241 22461.9
 07 01 2015  16 35  -14.3835 17957.0 -13494.2 -36.9237 22462.1
 07 01 2015  16 36  -14.3829 17957.6 -13494.3 -36.9229 22462.7
 07 01 2015  16 37  -14.3822 17958.1 -13494.3 -36.9224 22463.1
 07 01 2015  16 38  -14.3811 17958.4 -13494.4 -36.9220 22463.4
 07 01 2015  16 39  -14.3793 17958.7 -13494.4 -36.9216 22463.7
 07 01 2015  16 40  -14.3789 17958.8 -13494.3 -36.9212 22463.6
 07 01 2015  16 41  -14.3788 17959.0 -13494.5 -36.9213 22463.9
 07 01 2015  16 42  -14.3787 17959.2 -13494.4 -36.9209 22464.0
 07 01 2015  16 43  -14.3789 17959.3 -13494.5 -36.9208 22464.1
 07 01 2015  16 44  -14.3780 17959.8 -13494.7 -36.9205 22464.7
 07 01 2015  16 45  -14.3768 17960.5 -13494.8 -36.9196 22465.3
 07 01 2015  16 46  -14.3755 17960.9 -13494.8 -36.9191 22465.6
 07 01 2015  16 47  -14.3744 17961.1 -13494.9 -36.9189 22465.8
 07 01 2015  16 48  -14.3729 17961.5 -13494.9 -36.9183 22466.1
 07 01 2015  16 49  -14.3717 17961.8 -13494.9 -36.9180 22466.4
 07 01 2015  16 50  -14.3712 17961.9 -13495.1 -36.9182 22466.6
 07 01 2015  16 51  -14.3706 17962.2 -13495.2 -36.9177 22466.9
 07 01 2015  16 52  -14.3702 17962.4 -13495.1 -36.9173 22467.0
 07 01 2015  16 53  -14.3701 17962.3 -13495.2 -36.9176 22466.9
 07 01 2015  16 54  -14.3705 17962.0 -13495.1 -36.9179 22466.7
 07 01 2015  16 55  -14.3713 17962.1 -13495.2 -36.9181 22466.8
 07 01 2015  16 56  -14.3716 17962.5 -13495.2 -36.9173 22467.1
 07 01 2015  16 57  -14.3705 17963.2 -13495.3 -36.9166 22467.8
 07 01 2015  16 58  -14.3697 17963.5 -13495.4 -36.9164 22468.0
 07 01 2015  16 59  -14.3690 17963.8 -13495.3 -36.9157 22468.3
 07 01 2015  17 00  -14.3678 17964.3 -13495.3 -36.9149 22468.6
 07 01 2015  17 01  -14.3671 17964.5 -13495.3 -36.9145 22468.8
 07 01 2015  17 02  -14.3669 17964.5 -13495.4 -36.9146 22468.9
 07 01 2015  17 03  -14.3669 17964.7 -13495.3 -36.9142 22469.0
 07 01 2015  17 04  -14.3667 17965.0 -13495.3 -36.9138 22469.2
 07 01 2015  17 05  -14.3667 17965.2 -13495.4 -36.9136 22469.4
 07 01 2015  17 06  -14.3662 17966.1 -13495.5 -36.9125 22470.2
 07 01 2015  17 07  -14.3649 17967.6 -13495.8 -36.9107 22471.6
 07 01 2015  17 08  -14.3630 17969.1 -13496.0 -36.9088 22472.9
 07 01 2015  17 09  -14.3609 17969.7 -13496.0 -36.9080 22473.4
 07 01 2015  17 10  -14.3613 17969.3 -13495.9 -36.9083 22472.9
 07 01 2015  17 11  -14.3618 17969.1 -13495.7 -36.9083 22472.7
 07 01 2015  17 12  -14.3616 17969.5 -13495.7 -36.9077 22473.0
 07 01 2015  17 13  -14.3624 17969.4 -13495.7 -36.9080 22472.9
 07 01 2015  17 14  -14.3638 17969.1 -13495.6 -36.9082 22472.7
 07 01 2015  17 15  -14.3643 17969.3 -13495.7 -36.9080 22472.8
 07 01 2015  17 16  -14.3650 17969.8 -13495.8 -36.9075 22473.3
 07 01 2015  17 17  -14.3652 17970.2 -13496.0 -36.9071 22473.8
 07 01 2015  17 18  -14.3645 17971.3 -13496.1 -36.9056 22474.7
 07 01 2015  17 19  -14.3634 17972.5 -13496.2 -36.9041 22475.7
 07 01 2015  17 20  -14.3624 17973.3 -13496.3 -36.9032 22476.4
 07 01 2015  17 21  -14.3616 17974.1 -13496.4 -36.9020 22477.1
 07 01 2015  17 22  -14.3617 17974.4 -13496.3 -36.9014 22477.3
 07 01 2015  17 23  -14.3619 17974.3 -13496.2 -36.9013 22477.2
 07 01 2015  17 24  -14.3641 17973.5 -13495.9 -36.9019 22476.3
 07 01 2015  17 25  -14.3658 17973.1 -13495.7 -36.9023 22475.9
 07 01 2015  17 26  -14.3669 17973.5 -13495.6 -36.9014 22476.2
 07 01 2015  17 27  -14.3650 17975.2 -13495.9 -36.8994 22477.7
 07 01 2015  17 28  -14.3630 17976.9 -13496.1 -36.8972 22479.2
 07 01 2015  17 29  -14.3586 17979.7 -13496.4 -36.8936 22481.6
 07 01 2015  17 30  -14.3548 17980.9 -13496.4 -36.8917 22482.6
 07 01 2015  17 31  -14.3551 17980.4 -13496.0 -36.8917 22481.9
 07 01 2015  17 32  -14.3552 17980.4 -13495.6 -36.8908 22481.7
 07 01 2015  17 33  -14.3568 17980.3 -13495.4 -36.8904 22481.5
 07 01 2015  17 34  -14.3564 17981.2 -13495.2 -36.8887 22482.0
 07 01 2015  17 35  -14.3542 17982.0 -13495.1 -36.8873 22482.7
 07 01 2015  17 36  -14.3546 17981.7 -13494.8 -36.8873 22482.2
 07 01 2015  17 37  -14.3573 17981.1 -13494.5 -36.8874 22481.6
 07 01 2015  17 38  -14.3588 17981.8 -13494.6 -36.8866 22482.2
 07 01 2015  17 39  -14.3568 17983.4 -13494.6 -36.8842 22483.5
 07 01 2015  17 40  -14.3539 17984.9 -13494.8 -36.8823 22484.8
 07 01 2015  17 41  -14.3528 17986.1 -13494.6 -36.8800 22485.7
 07 01 2015  17 42  -14.3529 17987.0 -13494.5 -36.8785 22486.3
 07 01 2015  17 43  -14.3523 17987.2 -13494.3 -36.8778 22486.4
 07 01 2015  17 44  -14.3526 17986.9 -13494.0 -36.8777 22485.9
 07 01 2015  17 45  -14.3533 17986.4 -13493.7 -36.8777 22485.3
 07 01 2015  17 46  -14.3550 17985.7 -13493.4 -36.8782 22484.6
 07 01 2015  17 47  -14.3557 17985.7 -13493.3 -36.8780 22484.5
 07 01 2015  17 48  -14.3555 17985.7 -13493.1 -36.8775 22484.4
 07 01 2015  17 49  -14.3566 17985.2 -13493.0 -36.8780 22484.0
 07 01 2015  17 50  -14.3573 17985.3 -13493.1 -36.8782 22484.1
 07 01 2015  17 51  -14.3571 17985.5 -13493.0 -36.8778 22484.2
 07 01 2015  17 52  -14.3576 17985.1 -13492.8 -36.8780 22483.8
 07 01 2015  17 53  -14.3593 17984.5 -13492.8 -36.8787 22483.3
 07 01 2015  17 54  -14.3600 17985.0 -13492.7 -36.8779 22483.6
 07 01 2015  17 55  -14.3578 17985.9 -13492.8 -36.8767 22484.4
 07 01 2015  17 56  -14.3564 17986.3 -13492.8 -36.8762 22484.7
 07 01 2015  17 57  -14.3563 17986.6 -13492.8 -36.8756 22485.0
 07 01 2015  17 58  -14.3552 17985.7 -13492.4 -36.8762 22484.0
 07 01 2015  17 59  -14.3567 17982.9 -13491.8 -36.8792 22481.4
 07 01 2015  18 00  -14.3630 17981.0 -13491.5 -36.8815 22479.7
 07 01 2015  18 01  -14.3693 17980.4 -13491.6 -36.8828 22479.3
 07 01 2015  18 02  -14.3705 17980.2 -13491.5 -36.8828 22479.0
 07 01 2015  18 03  -14.3690 17980.2 -13491.8 -36.8833 22479.2
 07 01 2015  18 04  -14.3682 17980.1 -13491.7 -36.8834 22479.1
 07 01 2015  18 05  -14.3691 17980.0 -13491.8 -36.8837 22479.0
 07 01 2015  18 06  -14.3681 17981.1 -13492.1 -36.8825 22480.2
 07 01 2015  18 07  -14.3668 17981.9 -13492.0 -36.8812 22480.7
 07 01 2015  18 08  -14.3627 17983.6 -13492.4 -36.8794 22482.3
 07 01 2015  18 09  -14.3590 17984.6 -13492.5 -36.8782 22483.2
 07 01 2015  18 10  -14.3571 17984.3 -13492.3 -36.8782 22482.9
 07 01 2015  18 11  -14.3590 17983.7 -13492.0 -36.8784 22482.2
 07 01 2015  18 12  -14.3579 17985.3 -13492.2 -36.8764 22483.5
 07 01 2015  18 13  -14.3532 17986.8 -13492.4 -36.8746 22484.9
 07 01 2015  18 14  -14.3518 17987.0 -13492.2 -36.8739 22484.9
 07 01 2015  18 15  -14.3481 17988.8 -13492.5 -36.8717 22486.6
 07 01 2015  18 16  -14.3430 17991.0 -13493.0 -36.8693 22488.6
 07 01 2015  18 17  -14.3417 17990.6 -13492.6 -36.8691 22488.0
 07 01 2015  18 18  -14.3407 17990.5 -13492.4 -36.8687 22487.9
 07 01 2015  18 19  -14.3404 17990.0 -13492.3 -36.8693 22487.4
 07 01 2015  18 20  -14.3403 17989.1 -13491.9 -36.8699 22486.4
 07 01 2015  18 21  -14.3429 17988.5 -13491.9 -36.8710 22485.9
 07 01 2015  18 22  -14.3417 17989.4 -13492.2 -36.8701 22486.8
 07 01 2015  18 23  -14.3399 17989.5 -13492.3 -36.8702 22486.9
 07 01 2015  18 24  -14.3399 17989.3 -13492.3 -36.8704 22486.8
 07 01 2015  18 25  -14.3392 17989.9 -13492.4 -36.8697 22487.4
 07 01 2015  18 26  -14.3375 17990.7 -13492.5 -36.8688 22488.1
 07 01 2015  18 27  -14.3349 17990.8 -13492.6 -36.8689 22488.2
 07 01 2015  18 28  -14.3353 17989.7 -13492.5 -36.8702 22487.3
 07 01 2015  18 29  -14.3362 17989.9 -13492.6 -36.8702 22487.5
 07 01 2015  18 30  -14.3361 17989.7 -13492.7 -36.8706 22487.4
 07 01 2015  18 31  -14.3361 17988.9 -13492.5 -36.8715 22486.7
 07 01 2015  18 32  -14.3360 17989.2 -13492.8 -36.8716 22487.0
 07 01 2015  18 33  -14.3354 17989.7 -13493.0 -36.8713 22487.5
 07 01 2015  18 34  -14.3354 17989.5 -13493.0 -36.8716 22487.4
 07 01 2015  18 35  -14.3346 17989.2 -13493.1 -36.8724 22487.2
 07 01 2015  18 36  -14.3331 17989.1 -13493.2 -36.8726 22487.2
 07 01 2015  18 37  -14.3330 17989.1 -13493.5 -36.8733 22487.4
 07 01 2015  18 38  -14.3334 17989.3 -13493.8 -36.8734 22487.7
 07 01 2015  18 39  -14.3316 17988.9 -13493.9 -36.8743 22487.4
 07 01 2015  18 40  -14.3312 17988.6 -13494.0 -36.8750 22487.2
 07 01 2015  18 41  -14.3324 17989.1 -13494.3 -36.8748 22487.8
 07 01 2015  18 42  -14.3300 17990.6 -13494.8 -36.8736 22489.3
 07 01 2015  18 43  -14.3262 17990.7 -13495.1 -36.8741 22489.6
 07 01 2015  18 44  -14.3284 17989.5 -13494.9 -36.8754 22488.5
 07 01 2015  18 45  -14.3287 17989.8 -13494.9 -36.8749 22488.8
 07 01 2015  18 46  -14.3270 17990.2 -13495.2 -36.8750 22489.3
 07 01 2015  18 47  -14.3264 17990.2 -13495.4 -36.8755 22489.4
 07 01 2015  18 48  -14.3253 17990.6 -13495.7 -36.8754 22489.9
 07 01 2015  18 49  -14.3238 17990.3 -13495.8 -36.8760 22489.7
 07 01 2015  18 50  -14.3248 17987.9 -13495.5 -36.8790 22487.6
 07 01 2015  18 51  -14.3309 17985.3 -13495.2 -36.8826 22485.3
 07 01 2015  18 52  -14.3355 17985.2 -13495.5 -36.8833 22485.4
 07 01 2015  18 53  -14.3323 17986.6 -13496.1 -36.8823 22486.9
 07 01 2015  18 54  -14.3308 17987.5 -13496.5 -36.8819 22487.9
 07 01 2015  18 55  -14.3278 17988.3 -13497.0 -36.8816 22488.8
 07 01 2015  18 56  -14.3272 17988.3 -13497.2 -36.8819 22489.0
 07 01 2015  18 57  -14.3273 17988.5 -13497.3 -36.8819 22489.2
 07 01 2015  18 58  -14.3255 17988.9 -13497.5 -36.8816 22489.6
 07 01 2015  18 59  -14.3260 17987.6 -13497.4 -36.8835 22488.5
 07 01 2015  19 00  -14.3287 17986.5 -13497.3 -36.8850 22487.6
 07 01 2015  19 01  -14.3317 17987.2 -13497.6 -36.8844 22488.3
 07 01 2015  19 02  -14.3263 17991.4 -13498.6 -36.8801 22492.3
 07 01 2015  19 03  -14.3168 17992.6 -13499.0 -36.8791 22493.5
 07 01 2015  19 04  -14.3171 17989.2 -13498.5 -36.8834 22490.5
 07 01 2015  19 05  -14.3252 17987.1 -13498.2 -36.8859 22488.6
 07 01 2015  19 06  -14.3312 17986.5 -13498.2 -36.8868 22488.1
 07 01 2015  19 07  -14.3315 17987.1 -13498.4 -36.8863 22488.7
 07 01 2015  19 08  -14.3311 17988.1 -13499.0 -36.8860 22489.9
 07 01 2015  19 09  -14.3281 17990.4 -13499.8 -36.8840 22492.2
 07 01 2015  19 10  -14.3232 17992.0 -13500.2 -36.8825 22493.8
 07 01 2015  19 11  -14.3208 17992.1 -13500.2 -36.8823 22493.8
 07 01 2015  19 12  -14.3204 17992.0 -13500.1 -36.8822 22493.6
 07 01 2015  19 13  -14.3209 17992.0 -13500.1 -36.8822 22493.6
 07 01 2015  19 14  -14.3213 17992.3 -13500.3 -36.8822 22494.0
 07 01 2015  19 15  -14.3222 17992.2 -13500.3 -36.8824 22493.9
 07 01 2015  19 16  -14.3233 17991.0 -13500.1 -36.8838 22492.9
 07 01 2015  19 17  -14.3262 17989.6 -13499.9 -36.8854 22491.6
 07 01 2015  19 18  -14.3291 17989.6 -13500.0 -36.8858 22491.7
 07 01 2015  19 19  -14.3291 17990.5 -13500.3 -36.8851 22492.6
 07 01 2015  19 20  -14.3274 17991.8 -13500.7 -36.8837 22493.9
 07 01 2015  19 21  -14.3260 17991.2 -13500.8 -36.8849 22493.4
 07 01 2015  19 22  -14.3300 17988.4 -13500.2 -36.8881 22490.8
 07 01 2015  19 23  -14.3345 17987.9 -13500.3 -36.8889 22490.5
 07 01 2015  19 24  -14.3346 17988.7 -13500.7 -36.8886 22491.4
 07 01 2015  19 25  -14.3361 17989.2 -13501.0 -36.8883 22492.0
 07 01 2015  19 26  -14.3319 17992.4 -13501.8 -36.8850 22495.0
 07 01 2015  19 27  -14.3274 17994.6 -13502.3 -36.8827 22497.1
 07 01 2015  19 28  -14.3257 17996.5 -13502.5 -36.8803 22498.7
 07 01 2015  19 29  -14.3210 17999.8 -13503.2 -36.8765 22501.8
 07 01 2015  19 30  -14.3190 18000.0 -13502.8 -36.8756 22501.7
 07 01 2015  19 31  -14.3163 18000.1 -13502.6 -36.8749 22501.7
 07 01 2015  19 32  -14.3155 17998.9 -13502.5 -36.8766 22500.6
 07 01 2015  19 33  -14.3192 17997.1 -13502.0 -36.8782 22498.9
 07 01 2015  19 34  -14.3213 17996.8 -13501.9 -36.8787 22498.6
 07 01 2015  19 35  -14.3218 17997.3 -13502.2 -36.8783 22499.2
 07 01 2015  19 36  -14.3207 17998.1 -13502.6 -36.8779 22500.0
 07 01 2015  19 37  -14.3213 17998.5 -13503.0 -36.8781 22500.6
 07 01 2015  19 38  -14.3202 17999.5 -13503.2 -36.8771 22501.5
 07 01 2015  19 39  -14.3190 17999.9 -13503.5 -36.8770 22502.0
 07 01 2015  19 40  -14.3190 17999.1 -13503.5 -36.8784 22501.4
 07 01 2015  19 41  -14.3234 17998.3 -13503.2 -36.8790 22500.6
 07 01 2015  19 42  -14.3240 17999.2 -13503.6 -36.8784 22501.5
 07 01 2015  19 43  -14.3241 17998.7 -13503.7 -36.8794 22501.2
 07 01 2015  19 44  -14.3270 17997.0 -13503.6 -36.8817 22499.8
 07 01 2015  19 45  -14.3294 17996.5 -13503.7 -36.8827 22499.4
 07 01 2015  19 46  -14.3312 17995.7 -13503.8 -36.8841 22498.8
 07 01 2015  19 47  -14.3335 17994.7 -13503.9 -36.8859 22498.1
 07 01 2015  19 48  -14.3358 17994.2 -13504.2 -36.8872 22497.9
 07 01 2015  19 49  -14.3364 17994.5 -13504.6 -36.8876 22498.3
 07 01 2015  19 50  -14.3369 17994.7 -13505.0 -36.8881 22498.7
 07 01 2015  19 51  -14.3384 17994.6 -13505.2 -36.8887 22498.8
 07 01 2015  19 52  -14.3395 17994.5 -13505.4 -36.8891 22498.8
 07 01 2015  19 53  -14.3409 17994.4 -13505.5 -36.8896 22498.8
 07 01 2015  19 54  -14.3416 17994.3 -13505.7 -36.8902 22498.8
 07 01 2015  19 55  -14.3431 17993.7 -13505.7 -36.8910 22498.4
 07 01 2015  19 56  -14.3456 17993.4 -13505.9 -36.8918 22498.2
 07 01 2015  19 57  -14.3459 17994.8 -13506.3 -36.8906 22499.7
 07 01 2015  19 58  -14.3439 17996.0 -13506.7 -36.8895 22500.8
 07 01 2015  19 59  -14.3430 17995.5 -13506.7 -36.8905 22500.4
 07 01 2015  20 00  -14.3449 17994.5 -13506.5 -36.8915 22499.5
 07 01 2015  20 01  -14.3472 17992.9 -13506.4 -36.8937 22498.2
 07 01 2015  20 02  -14.3506 17990.9 -13506.3 -36.8966 22496.5
 07 01 2015  20 03  -14.3569 17987.7 -13505.9 -36.9006 22493.7
 07 01 2015  20 04  -14.3642 17986.6 -13505.9 -36.9024 22492.8
 07 01 2015  20 05  -14.3618 17988.8 -13507.0 -36.9011 22495.2
 07 01 2015  20 06  -14.3613 17988.7 -13507.1 -36.9016 22495.3
 07 01 2015  20 07  -14.3607 17987.5 -13507.4 -36.9040 22494.5
 07 01 2015  20 08  -14.3627 17987.0 -13507.7 -36.9054 22494.2
 07 01 2015  20 09  -14.3642 17986.5 -13507.8 -36.9064 22493.9
 07 01 2015  20 10  -14.3663 17986.4 -13508.1 -36.9071 22494.0
 07 01 2015  20 11  -14.3663 17988.2 -13508.6 -36.9054 22495.7
 07 01 2015  20 12  -14.3638 17990.2 -13509.4 -36.9040 22497.8
 07 01 2015  20 13  -14.3624 17990.6 -13509.6 -36.9037 22498.2
 07 01 2015  20 14  -14.3624 17990.2 -13509.7 -36.9044 22498.0
 07 01 2015  20 15  -14.3645 17989.2 -13509.4 -36.9055 22497.0
 07 01 2015  20 16  -14.3656 17990.0 -13509.8 -36.9051 22497.8
 07 01 2015  20 17  -14.3643 17989.7 -13509.9 -36.9058 22497.7
 07 01 2015  20 18  -14.3653 17987.3 -13509.6 -36.9088 22495.6
 07 01 2015  20 19  -14.3703 17985.2 -13509.5 -36.9118 22493.8
 07 01 2015  20 20  -14.3736 17984.9 -13509.7 -36.9126 22493.7
 07 01 2015  20 21  -14.3762 17984.8 -13510.0 -36.9135 22493.8
 07 01 2015  20 22  -14.3779 17984.9 -13510.3 -36.9138 22494.1
 07 01 2015  20 23  -14.3788 17985.2 -13510.5 -36.9140 22494.5
 07 01 2015  20 24  -14.3794 17985.5 -13510.8 -36.9140 22494.9
 07 01 2015  20 25  -14.3799 17985.7 -13511.0 -36.9140 22495.2
 07 01 2015  20 26  -14.3793 17986.3 -13511.2 -36.9137 22495.8
 07 01 2015  20 27  -14.3794 17987.0 -13511.5 -36.9131 22496.4
 07 01 2015  20 28  -14.3794 17986.8 -13511.5 -36.9135 22496.4
 07 01 2015  20 29  -14.3802 17986.0 -13511.5 -36.9146 22495.7
 07 01 2015  20 30  -14.3825 17985.0 -13511.3 -36.9157 22494.7
 07 01 2015  20 31  -14.3847 17984.5 -13511.3 -36.9164 22494.4
 07 01 2015  20 32  -14.3868 17984.6 -13511.7 -36.9172 22494.7
 07 01 2015  20 33  -14.3870 17985.7 -13512.0 -36.9163 22495.8
 07 01 2015  20 34  -14.3858 17987.5 -13512.3 -36.9140 22497.4
 07 01 2015  20 35  -14.3836 17989.3 -13512.8 -36.9123 22499.2
 07 01 2015  20 36  -14.3826 17989.6 -13512.9 -36.9119 22499.4
 07 01 2015  20 37  -14.3830 17989.2 -13512.5 -36.9118 22498.9
 07 01 2015  20 38  -14.3842 17988.6 -13512.5 -36.9127 22498.3
 07 01 2015  20 39  -14.3860 17987.5 -13512.3 -36.9139 22497.4
 07 01 2015  20 40  -14.3879 17988.0 -13512.3 -36.9133 22497.8
 07 01 2015  20 41  -14.3872 17989.6 -13512.7 -36.9116 22499.3
 07 01 2015  20 42  -14.3858 17991.0 -13513.1 -36.9101 22500.7
 07 01 2015  20 43  -14.3839 17991.7 -13513.0 -36.9090 22501.2
 07 01 2015  20 44  -14.3838 17990.2 -13512.7 -36.9107 22499.8
 07 01 2015  20 45  -14.3873 17988.2 -13512.2 -36.9127 22497.9
 07 01 2015  20 46  -14.3904 17987.7 -13512.3 -36.9136 22497.5
 07 01 2015  20 47  -14.3917 17987.5 -13512.3 -36.9139 22497.4
 07 01 2015  20 48  -14.3928 17985.4 -13512.1 -36.9167 22495.6
 07 01 2015  20 49  -14.3971 17982.3 -13511.5 -36.9204 22492.8
 07 01 2015  20 50  -14.4024 17979.7 -13511.4 -36.9241 22490.6
 07 01 2015  20 51  -14.4072 17977.7 -13511.4 -36.9272 22489.0
 07 01 2015  20 52  -14.4128 17975.5 -13511.1 -36.9300 22487.1
 07 01 2015  20 53  -14.4176 17974.7 -13511.4 -36.9318 22486.6
 07 01 2015  20 54  -14.4204 17974.9 -13511.7 -36.9320 22487.0
 07 01 2015  20 55  -14.4218 17975.7 -13512.1 -36.9315 22487.9
 07 01 2015  20 56  -14.4206 17975.0 -13512.2 -36.9329 22487.3
 07 01 2015  20 57  -14.4232 17972.2 -13511.8 -36.9364 22484.9
 07 01 2015  20 58  -14.4280 17971.1 -13511.8 -36.9380 22484.0
 07 01 2015  20 59  -14.4306 17970.9 -13512.0 -36.9388 22483.9
 07 01 2015  21 00  -14.4326 17970.0 -13512.1 -36.9403 22483.2
 07 01 2015  21 01  -14.4349 17974.8 -13513.1 -36.9351 22487.8
 07 01 2015  21 02  -14.4272 17975.1 -13513.1 -36.9347 22488.0
 07 01 2015  21 03  -14.4257 17976.8 -13513.6 -36.9328 22489.6
 07 01 2015  21 04  -14.4215 17981.8 -13514.5 -36.9272 22494.2
 07 01 2015  21 05  -14.4141 17985.5 -13515.1 -36.9227 22497.4
 07 01 2015  21 06  -14.4083 17985.1 -13514.7 -36.9225 22496.9
 07 01 2015  21 07  -14.4072 17984.0 -13514.2 -36.9233 22495.7
 07 01 2015  21 08  -14.4088 17983.9 -13514.0 -36.9230 22495.5
 07 01 2015  21 09  -14.4124 17984.1 -13513.9 -36.9225 22495.6
 07 01 2015  21 10  -14.4138 17987.9 -13514.2 -36.9172 22498.9
 07 01 2015  21 11  -14.4071 17995.6 -13515.4 -36.9079 22505.7
 07 01 2015  21 12  -14.3937 18002.0 -13516.3 -36.8999 22511.3
 07 01 2015  21 13  -14.3805 18004.2 -13516.3 -36.8965 22513.1
 07 01 2015  21 14  -14.3781 18002.4 -13515.3 -36.8974 22511.1
 07 01 2015  21 15  -14.3796 17999.3 -13514.1 -36.8997 22507.9
 07 01 2015  21 16  -14.3848 17994.4 -13512.8 -36.9045 22503.2
 07 01 2015  21 17  -14.3924 17989.4 -13511.9 -36.9103 22498.6
 07 01 2015  21 18  -14.3984 17986.3 -13511.7 -36.9146 22496.0
 07 01 2015  21 19  -14.4029 17985.5 -13512.0 -36.9164 22495.6
 07 01 2015  21 20  -14.4068 17985.0 -13512.5 -36.9181 22495.5
 07 01 2015  21 21  -14.4093 17984.5 -13512.4 -36.9189 22495.1
 07 01 2015  21 22  -14.4105 17985.3 -13512.9 -36.9186 22496.0
 07 01 2015  21 23  -14.4114 17985.5 -13513.3 -36.9190 22496.4
 07 01 2015  21 24  -14.4121 17985.6 -13513.3 -36.9188 22496.5
 07 01 2015  21 25  -14.4124 17986.2 -13513.5 -36.9183 22497.0
 07 01 2015  21 26  -14.4126 17986.4 -13513.6 -36.9183 22497.3
 07 01 2015  21 27  -14.4151 17984.5 -13513.2 -36.9203 22495.5
 07 01 2015  21 28  -14.4187 17980.1 -13512.3 -36.9253 22491.5
 07 01 2015  21 29  -14.4225 17977.9 -13512.1 -36.9282 22489.6
 07 01 2015  21 30  -14.4238 17980.1 -13512.8 -36.9263 22491.8
 07 01 2015  21 31  -14.4220 17983.4 -13513.6 -36.9229 22494.9
 07 01 2015  21 32  -14.4175 17987.4 -13514.5 -36.9185 22498.6
 07 01 2015  21 33  -14.4126 17991.1 -13514.9 -36.9138 22501.8
 07 01 2015  21 34  -14.4086 17993.0 -13514.8 -36.9106 22503.3
 07 01 2015  21 35  -14.4057 17993.0 -13514.3 -36.9096 22503.0
 07 01 2015  21 36  -14.4059 17991.9 -13513.8 -36.9103 22501.8
 07 01 2015  21 37  -14.4064 17991.0 -13513.2 -36.9106 22500.7
 07 01 2015  21 38  -14.4076 17989.6 -13512.9 -36.9119 22499.4
 07 01 2015  21 39  -14.4081 17988.2 -13512.6 -36.9136 22498.1
 07 01 2015  21 40  -14.4096 17985.0 -13512.2 -36.9176 22495.4
 07 01 2015  21 41  -14.4133 17981.2 -13511.7 -36.9224 22492.0
 07 01 2015  21 42  -14.4176 17977.7 -13511.5 -36.9273 22489.0
 07 01 2015  21 43  -14.4212 17975.9 -13511.6 -36.9303 22487.7
 07 01 2015  21 44  -14.4228 17975.7 -13512.2 -36.9319 22487.9
 07 01 2015  21 45  -14.4242 17975.3 -13512.9 -36.9338 22487.9
 07 01 2015  21 46  -14.4266 17973.6 -13512.8 -36.9363 22486.6
 07 01 2015  21 47  -14.4291 17972.2 -13513.0 -36.9388 22485.5
 07 01 2015  21 48  -14.4328 17971.0 -13513.1 -36.9409 22484.7
 07 01 2015  21 49  -14.4366 17970.0 -13513.3 -36.9427 22484.0
 07 01 2015  21 50  -14.4382 17969.8 -13513.5 -36.9435 22483.9
 07 01 2015  21 51  -14.4389 17969.9 -13513.8 -36.9439 22484.2
 07 01 2015  21 52  -14.4388 17969.9 -13514.0 -36.9443 22484.3
 07 01 2015  21 53  -14.4392 17969.4 -13514.2 -36.9455 22484.1
 07 01 2015  21 54  -14.4403 17969.3 -13514.3 -36.9460 22484.0
 07 01 2015  21 55  -14.4393 17969.9 -13514.5 -36.9453 22484.6
 07 01 2015  21 56  -14.4373 17970.8 -13514.8 -36.9447 22485.5
 07 01 2015  21 57  -14.4343 17971.8 -13515.1 -36.9438 22486.5
 07 01 2015  21 58  -14.4332 17971.9 -13515.1 -36.9436 22486.5
 07 01 2015  21 59  -14.4380 17967.7 -13514.2 -36.9481 22482.7
 07 01 2015  22 00  -14.4483 17960.7 -13512.8 -36.9559 22476.3
 07 01 2015  22 01  -14.4589 17955.5 -13511.9 -36.9622 22471.6
 07 01 2015  22 02  -14.4645 17954.7 -13512.3 -36.9642 22471.2
 07 01 2015  22 03  -14.4674 17955.1 -13513.1 -36.9651 22472.0
 07 01 2015  22 04  -14.4694 17954.8 -13513.4 -36.9662 22471.9
 07 01 2015  22 05  -14.4689 17955.8 -13513.9 -36.9658 22473.0
 07 01 2015  22 06  -14.4675 17957.7 -13514.5 -36.9641 22474.9
 07 01 2015  22 07  -14.4634 17961.6 -13515.2 -36.9596 22478.4
 07 01 2015  22 08  -14.4572 17965.7 -13516.1 -36.9551 22482.2
 07 01 2015  22 09  -14.4538 17967.8 -13516.1 -36.9518 22483.9
 07 01 2015  22 10  -14.4520 17967.5 -13515.5 -36.9511 22483.4
 07 01 2015  22 11  -14.4510 17967.1 -13515.2 -36.9511 22482.8
 07 01 2015  22 12  -14.4526 17965.6 -13514.5 -36.9519 22481.2
 07 01 2015  22 13  -14.4562 17962.8 -13513.8 -36.9547 22478.5
 07 01 2015  22 14  -14.4596 17961.3 -13513.5 -36.9565 22477.1
 07 01 2015  22 15  -14.4618 17960.8 -13513.4 -36.9571 22476.7
 07 01 2015  22 16  -14.4624 17961.2 -13513.5 -36.9567 22477.1
 07 01 2015  22 17  -14.4622 17961.7 -13513.7 -36.9562 22477.6
 07 01 2015  22 18  -14.4620 17961.8 -13513.7 -36.9562 22477.7
 07 01 2015  22 19  -14.4620 17961.6 -13513.6 -36.9563 22477.5
 07 01 2015  22 20  -14.4618 17961.2 -13513.4 -36.9566 22477.0
 07 01 2015  22 21  -14.4615 17961.0 -13513.5 -36.9570 22477.0
 07 01 2015  22 22  -14.4624 17959.5 -13513.1 -36.9585 22475.5
 07 01 2015  22 23  -14.4656 17957.5 -13512.6 -36.9605 22473.6
 07 01 2015  22 24  -14.4682 17956.2 -13512.4 -36.9622 22472.4
 07 01 2015  22 25  -14.4668 17955.1 -13512.3 -36.9635 22471.5
 07 01 2015  22 26  -14.4657 17955.8 -13512.6 -36.9631 22472.3
 07 01 2015  22 27  -14.4658 17956.0 -13512.8 -36.9632 22472.6
 07 01 2015  22 28  -14.4668 17954.7 -13512.4 -36.9644 22471.2
 07 01 2015  22 29  -14.4676 17954.0 -13512.4 -36.9654 22470.7
 07 01 2015  22 30  -14.4673 17954.6 -13512.6 -36.9650 22471.2
 07 01 2015  22 31  -14.4643 17955.0 -13512.7 -36.9646 22471.7
 07 01 2015  22 32  -14.4606 17956.3 -13513.0 -36.9631 22472.9
 07 01 2015  22 33  -14.4593 17957.6 -13513.1 -36.9613 22474.0
 07 01 2015  22 34  -14.4607 17957.1 -13512.8 -36.9614 22473.4
 07 01 2015  22 35  -14.4616 17956.4 -13512.3 -36.9618 22472.5
 07 01 2015  22 36  -14.4616 17956.1 -13512.3 -36.9620 22472.3
 07 01 2015  22 37  -14.4617 17956.2 -13512.3 -36.9620 22472.4
 07 01 2015  22 38  -14.4608 17955.9 -13512.2 -36.9622 22472.0
 07 01 2015  22 39  -14.4588 17956.1 -13511.9 -36.9613 22472.0
 07 01 2015  22 40  -14.4550 17957.0 -13512.1 -36.9602 22472.9
 07 01 2015  22 41  -14.4521 17957.9 -13512.3 -36.9594 22473.7
 07 01 2015  22 42  -14.4506 17957.6 -13512.0 -36.9591 22473.3
 07 01 2015  22 43  -14.4504 17957.1 -13511.9 -36.9596 22472.8
 07 01 2015  22 44  -14.4500 17956.5 -13511.6 -36.9601 22472.2
 07 01 2015  22 45  -14.4470 17957.0 -13511.8 -36.9595 22472.7
 07 01 2015  22 46  -14.4444 17958.4 -13511.9 -36.9577 22473.9
 07 01 2015  22 47  -14.4415 17959.5 -13512.0 -36.9562 22474.8
 07 01 2015  22 48  -14.4394 17960.2 -13511.9 -36.9550 22475.3
 07 01 2015  22 49  -14.4380 17959.8 -13511.6 -36.9551 22474.8
 07 01 2015  22 50  -14.4353 17960.3 -13511.5 -36.9539 22475.2
 07 01 2015  22 51  -14.4337 17961.8 -13511.6 -36.9519 22476.4
 07 01 2015  22 52  -14.4335 17962.4 -13511.6 -36.9509 22476.9
 07 01 2015  22 53  -14.4330 17962.8 -13511.4 -36.9500 22477.1
 07 01 2015  22 54  -14.4318 17962.8 -13511.2 -36.9495 22477.0
 07 01 2015  22 55  -14.4308 17963.1 -13511.1 -36.9489 22477.2
 07 01 2015  22 56  -14.4297 17963.4 -13511.0 -36.9483 22477.4
 07 01 2015  22 57  -14.4284 17963.9 -13511.1 -36.9476 22477.8
 07 01 2015  22 58  -14.4278 17964.0 -13511.0 -36.9472 22477.8
 07 01 2015  22 59  -14.4270 17964.0 -13511.0 -36.9472 22477.8
 07 01 2015  23 00  -14.4266 17963.6 -13510.8 -36.9475 22477.3
 07 01 2015  23 01  -14.4258 17962.8 -13510.6 -36.9482 22476.6
 07 01 2015  23 02  -14.4255 17961.8 -13510.3 -36.9493 22475.7
 07 01 2015  23 03  -14.4255 17960.9 -13510.2 -36.9505 22474.9
 07 01 2015  23 04  -14.4251 17960.4 -13510.3 -36.9515 22474.5
 07 01 2015  23 05  -14.4239 17959.9 -13510.4 -36.9523 22474.2
 07 01 2015  23 06  -14.4234 17959.4 -13510.5 -36.9533 22473.8
 07 01 2015  23 07  -14.4226 17958.9 -13510.5 -36.9542 22473.4
 07 01 2015  23 08  -14.4229 17958.1 -13510.5 -36.9554 22472.8
 07 01 2015  23 09  -14.4219 17958.0 -13510.5 -36.9556 22472.7
 07 01 2015  23 10  -14.4211 17958.5 -13510.8 -36.9554 22473.3
 07 01 2015  23 11  -14.4219 17958.5 -13511.1 -36.9559 22473.4
 07 01 2015  23 12  -14.4230 17957.4 -13510.9 -36.9571 22472.5
 07 01 2015  23 13  -14.4234 17956.7 -13511.0 -36.9584 22472.0
 07 01 2015  23 14  -14.4239 17956.8 -13511.1 -36.9586 22472.1
 07 01 2015  23 15  -14.4242 17956.3 -13511.2 -36.9596 22471.8
 07 01 2015  23 16  -14.4225 17956.5 -13511.4 -36.9596 22472.0
 07 01 2015  23 17  -14.4217 17956.9 -13511.8 -36.9597 22472.7
 07 01 2015  23 18  -14.4254 17956.1 -13511.7 -36.9608 22471.9
 07 01 2015  23 19  -14.4291 17954.1 -13511.4 -36.9633 22470.2
 07 01 2015  23 20  -14.4308 17952.5 -13511.3 -36.9655 22468.8
 07 01 2015  23 21  -14.4308 17951.6 -13511.5 -36.9673 22468.2
 07 01 2015  23 22  -14.4285 17951.3 -13511.8 -36.9683 22468.2
 07 01 2015  23 23  -14.4249 17952.2 -13512.4 -36.9682 22469.2
 07 01 2015  23 24  -14.4222 17953.3 -13512.8 -36.9673 22470.4
 07 01 2015  23 25  -14.4209 17954.8 -13513.3 -36.9660 22471.9
 07 01 2015  23 26  -14.4198 17955.8 -13513.4 -36.9648 22472.7
 07 01 2015  23 27  -14.4184 17955.9 -13513.4 -36.9647 22472.8
 07 01 2015  23 28  -14.4174 17956.0 -13513.4 -36.9643 22472.9
 07 01 2015  23 29  -14.4159 17956.2 -13513.3 -36.9640 22473.0
 07 01 2015  23 30  -14.4143 17956.4 -13513.5 -36.9639 22473.3
 07 01 2015  23 31  -14.4129 17957.4 -13513.7 -36.9629 22474.1
 07 01 2015  23 32  -14.4121 17958.7 -13513.9 -36.9615 22475.3
 07 01 2015  23 33  -14.4124 17959.4 -13514.0 -36.9604 22475.9
 07 01 2015  23 34  -14.4123 17959.6 -13513.9 -36.9599 22476.1
 07 01 2015  23 35  -14.4119 17959.6 -13513.8 -36.9599 22476.0
 07 01 2015  23 36  -14.4110 17959.3 -13513.7 -36.9601 22475.7
 07 01 2015  23 37  -14.4104 17958.8 -13513.5 -36.9604 22475.2
 07 01 2015  23 38  -14.4115 17958.9 -13513.8 -36.9608 22475.4
 07 01 2015  23 39  -14.4118 17959.1 -13513.9 -36.9607 22475.7
 07 01 2015  23 40  -14.4124 17959.3 -13514.0 -36.9606 22475.9
 07 01 2015  23 41  -14.4125 17959.5 -13514.2 -36.9608 22476.2
 07 01 2015  23 42  -14.4118 17959.5 -13514.2 -36.9607 22476.1
 07 01 2015  23 43  -14.4115 17959.3 -13514.2 -36.9611 22476.0
 07 01 2015  23 44  -14.4116 17959.4 -13514.4 -36.9612 22476.2
 07 01 2015  23 45  -14.4121 17959.6 -13514.5 -36.9611 22476.4
 07 01 2015  23 46  -14.4122 17959.9 -13514.5 -36.9607 22476.6
 07 01 2015  23 47  -14.4117 17960.2 -13514.7 -36.9605 22477.0
 07 01 2015  23 48  -14.4116 17960.4 -13514.8 -36.9605 22477.2
 07 01 2015  23 49  -14.4114 17960.5 -13514.8 -36.9605 22477.3
 07 01 2015  23 50  -14.4111 17960.6 -13514.9 -36.9605 22477.5
 07 01 2015  23 51  -14.4110 17960.7 -13514.9 -36.9604 22477.5
 07 01 2015  23 52  -14.4116 17960.7 -13515.1 -36.9606 22477.6
 07 01 2015  23 53  -14.4139 17960.0 -13514.8 -36.9611 22476.9
 07 01 2015  23 54  -14.4161 17959.2 -13514.8 -36.9623 22476.3
 07 01 2015  23 55  -14.4181 17957.9 -13514.7 -36.9642 22475.2
 07 01 2015  23 56  -14.4191 17956.9 -13514.7 -36.9656 22474.4
 07 01 2015  23 57  -14.4192 17956.6 -13514.9 -36.9666 22474.3
 07 01 2015  23 58  -14.4181 17956.7 -13515.3 -36.9673 22474.5
