SAO MARTINHO DA SERRA EMBRACE-06 <026> 1 Min. Reported data

 DD MM YYYY  HH MM   D(Deg)  H(nT)   Z(nT)   I(Deg)   F(nT)

 26 01 2015  00 00  -14.4279 17995.4 -13513.3 -36.9039 22504.3
 26 01 2015  00 01  -14.4272 17995.6 -13513.2 -36.9035 22504.4
 26 01 2015  00 02  -14.4268 17995.3 -13512.9 -36.9032 22504.0
 26 01 2015  00 03  -14.4265 17994.9 -13513.0 -36.9040 22503.7
 26 01 2015  00 04  -14.4264 17994.9 -13513.5 -36.9050 22504.0
 26 01 2015  00 05  -14.4265 17994.6 -13513.3 -36.9051 22503.6
 26 01 2015  00 06  -14.4268 17994.1 -13513.0 -36.9053 22503.1
 26 01 2015  00 07  -14.4273 17993.7 -13513.0 -36.9058 22502.8
 26 01 2015  00 08  -14.4271 17993.6 -13513.2 -36.9064 22502.8
 26 01 2015  00 09  -14.4271 17993.0 -13513.4 -36.9078 22502.5
 26 01 2015  00 10  -14.4276 17992.5 -13513.4 -36.9086 22502.0
 26 01 2015  00 11  -14.4276 17992.2 -13513.3 -36.9088 22501.8
 26 01 2015  00 12  -14.4276 17992.1 -13514.0 -36.9105 22502.1
 26 01 2015  00 13  -14.4276 17992.2 -13513.8 -36.9099 22502.0
 26 01 2015  00 14  -14.4279 17991.8 -13513.7 -36.9103 22501.6
 26 01 2015  00 15  -14.4284 17991.2 -13513.8 -36.9113 22501.2
 26 01 2015  00 16  -14.4292 17990.6 -13513.8 -36.9122 22500.8
 26 01 2015  00 17  -14.4299 17990.1 -13513.4 -36.9122 22500.2
 26 01 2015  00 18  -14.4300 17989.5 -13513.8 -36.9139 22499.9
 26 01 2015  00 19  -14.4297 17989.0 -13513.6 -36.9142 22499.4
 26 01 2015  00 20  -14.4289 17988.7 -13514.3 -36.9163 22499.6
 26 01 2015  00 21  -14.4280 17988.9 -13514.1 -36.9155 22499.6
 26 01 2015  00 22  -14.4273 17989.1 -13514.5 -36.9161 22500.0
 26 01 2015  00 23  -14.4265 17989.0 -13514.4 -36.9160 22499.9
 26 01 2015  00 24  -14.4257 17989.0 -13514.7 -36.9166 22500.0
 26 01 2015  00 25  -14.4250 17988.9 -13514.6 -36.9166 22499.8
 26 01 2015  00 26  -14.4245 17988.8 -13514.7 -36.9170 22499.9
 26 01 2015  00 27  -14.4241 17988.4 -13514.7 -36.9175 22499.6
 26 01 2015  00 28  -14.4239 17988.1 -13515.0 -36.9185 22499.5
 26 01 2015  00 29  -14.4241 17987.5 -13514.8 -36.9190 22498.9
 26 01 2015  00 30  -14.4244 17986.9 -13514.9 -36.9203 22498.4
 26 01 2015  00 31  -14.4248 17986.4 -13514.9 -36.9208 22498.1
 26 01 2015  00 32  -14.4249 17986.1 -13514.9 -36.9215 22497.8
 26 01 2015  00 33  -14.4247 17986.0 -13514.9 -36.9216 22497.7
 26 01 2015  00 34  -14.4245 17985.8 -13515.3 -36.9228 22497.9
 26 01 2015  00 35  -14.4240 17986.0 -13515.5 -36.9229 22498.1
 26 01 2015  00 36  -14.4238 17985.8 -13515.4 -36.9228 22497.9
 26 01 2015  00 37  -14.4231 17985.8 -13515.1 -36.9222 22497.7
 26 01 2015  00 38  -14.4228 17985.6 -13515.0 -36.9223 22497.5
 26 01 2015  00 39  -14.4224 17985.5 -13515.1 -36.9228 22497.5
 26 01 2015  00 40  -14.4219 17985.6 -13515.5 -36.9234 22497.8
 26 01 2015  00 41  -14.4216 17985.7 -13515.3 -36.9229 22497.7
 26 01 2015  00 42  -14.4211 17985.9 -13515.6 -36.9231 22498.1
 26 01 2015  00 43  -14.4208 17986.2 -13515.3 -36.9220 22498.1
 26 01 2015  00 44  -14.4204 17986.6 -13515.8 -36.9223 22498.8
 26 01 2015  00 45  -14.4204 17986.6 -13515.8 -36.9224 22498.8
 26 01 2015  00 46  -14.4205 17986.5 -13515.6 -36.9223 22498.5
 26 01 2015  00 47  -14.4209 17986.5 -13515.4 -36.9219 22498.4
 26 01 2015  00 48  -14.4209 17986.2 -13515.8 -36.9229 22498.4
 26 01 2015  00 49  -14.4212 17986.0 -13515.5 -36.9228 22498.1
 26 01 2015  00 50  -14.4213 17985.9 -13515.8 -36.9235 22498.2
 26 01 2015  00 51  -14.4210 17986.0 -13515.6 -36.9231 22498.2
 26 01 2015  00 52  -14.4210 17986.1 -13515.6 -36.9229 22498.2
 26 01 2015  00 53  -14.4205 17986.3 -13515.7 -36.9227 22498.5
 26 01 2015  00 54  -14.4200 17986.5 -13515.9 -36.9227 22498.8
 26 01 2015  00 55  -14.4199 17986.7 -13516.1 -36.9230 22499.0
 26 01 2015  00 56  -14.4194 17987.0 -13515.9 -36.9221 22499.1
 26 01 2015  00 57  -14.4192 17987.1 -13515.9 -36.9218 22499.2
 26 01 2015  00 58  -14.4187 17987.4 -13516.0 -36.9217 22499.5
 26 01 2015  00 59  -14.4187 17987.4 -13515.9 -36.9214 22499.4
 26 01 2015  01 00  -14.4184 17987.5 -13515.9 -36.9213 22499.6
 26 01 2015  01 01  -14.4182 17987.6 -13515.8 -36.9209 22499.6
 26 01 2015  01 02  -14.4181 17987.4 -13515.9 -36.9216 22499.4
 26 01 2015  01 03  -14.4179 17987.7 -13516.2 -36.9216 22499.9
 26 01 2015  01 04  -14.4176 17987.7 -13515.8 -36.9208 22499.6
 26 01 2015  01 05  -14.4170 17987.8 -13516.3 -36.9216 22500.1
 26 01 2015  01 06  -14.4162 17988.1 -13515.9 -36.9205 22500.0
 26 01 2015  01 07  -14.4157 17988.1 -13515.8 -36.9202 22499.9
 26 01 2015  01 08  -14.4155 17988.1 -13515.5 -36.9196 22499.8
 26 01 2015  01 09  -14.4149 17988.1 -13515.5 -36.9196 22499.9
 26 01 2015  01 10  -14.4145 17988.3 -13516.0 -36.9203 22500.3
 26 01 2015  01 11  -14.4139 17988.7 -13515.8 -36.9194 22500.4
 26 01 2015  01 12  -14.4132 17988.9 -13515.8 -36.9191 22500.6
 26 01 2015  01 13  -14.4125 17989.0 -13516.0 -36.9192 22500.8
 26 01 2015  01 14  -14.4108 17989.6 -13516.1 -36.9185 22501.4
 26 01 2015  01 15  -14.4096 17990.1 -13516.4 -36.9184 22501.9
 26 01 2015  01 16  -14.4094 17990.4 -13516.0 -36.9170 22501.9
 26 01 2015  01 17  -14.4086 17990.8 -13515.9 -36.9164 22502.2
 26 01 2015  01 18  -14.4078 17991.2 -13516.6 -36.9170 22502.9
 26 01 2015  01 19  -14.4068 17991.8 -13515.9 -36.9148 22503.0
 26 01 2015  01 20  -14.4056 17992.5 -13516.0 -36.9137 22503.6
 26 01 2015  01 21  -14.4046 17993.1 -13516.0 -36.9128 22504.1
 26 01 2015  01 22  -14.4040 17993.5 -13516.1 -36.9127 22504.5
 26 01 2015  01 23  -14.4034 17993.9 -13516.0 -36.9117 22504.8
 26 01 2015  01 24  -14.4026 17994.4 -13516.0 -36.9110 22505.1
 26 01 2015  01 25  -14.4019 17994.7 -13516.4 -36.9112 22505.6
 26 01 2015  01 26  -14.4017 17994.8 -13515.8 -36.9099 22505.4
 26 01 2015  01 27  -14.4016 17994.6 -13515.5 -36.9096 22504.9
 26 01 2015  01 28  -14.4016 17994.6 -13515.4 -36.9095 22504.9
 26 01 2015  01 29  -14.4008 17995.2 -13515.5 -36.9087 22505.5
 26 01 2015  01 30  -14.3998 17996.2 -13515.7 -36.9076 22506.3
 26 01 2015  01 31  -14.3988 17996.5 -13515.7 -36.9071 22506.7
 26 01 2015  01 32  -14.3988 17996.7 -13515.4 -36.9063 22506.6
 26 01 2015  01 33  -14.3985 17997.0 -13515.5 -36.9060 22506.9
 26 01 2015  01 34  -14.3978 17997.0 -13515.6 -36.9062 22507.0
 26 01 2015  01 35  -14.3981 17997.0 -13515.2 -36.9055 22506.7
 26 01 2015  01 36  -14.3983 17996.9 -13515.3 -36.9057 22506.7
 26 01 2015  01 37  -14.3979 17997.1 -13515.3 -36.9053 22506.8
 26 01 2015  01 38  -14.3978 17997.3 -13515.3 -36.9051 22507.0
 26 01 2015  01 39  -14.3977 17997.3 -13516.0 -36.9064 22507.4
 26 01 2015  01 40  -14.3977 17997.4 -13515.4 -36.9051 22507.2
 26 01 2015  01 41  -14.3978 17997.5 -13515.2 -36.9047 22507.1
 26 01 2015  01 42  -14.3978 17997.5 -13515.0 -36.9041 22507.0
 26 01 2015  01 43  -14.3982 17997.4 -13515.2 -36.9046 22507.0
 26 01 2015  01 44  -14.3984 17997.5 -13515.3 -36.9046 22507.2
 26 01 2015  01 45  -14.3985 17997.5 -13515.1 -36.9045 22507.0
 26 01 2015  01 46  -14.3984 17997.5 -13515.8 -36.9057 22507.5
 26 01 2015  01 47  -14.3984 17997.6 -13515.4 -36.9047 22507.3
 26 01 2015  01 48  -14.3980 17998.0 -13515.4 -36.9043 22507.6
 26 01 2015  01 49  -14.3979 17998.2 -13515.0 -36.9032 22507.6
 26 01 2015  01 50  -14.3979 17998.2 -13515.2 -36.9035 22507.7
 26 01 2015  01 51  -14.3980 17998.3 -13515.5 -36.9040 22507.9
 26 01 2015  01 52  -14.3981 17997.7 -13515.7 -36.9053 22507.6
 26 01 2015  01 53  -14.3986 17997.6 -13515.7 -36.9054 22507.5
 26 01 2015  01 54  -14.3991 17997.5 -13515.8 -36.9058 22507.5
 26 01 2015  01 55  -14.3994 17997.9 -13516.1 -36.9059 22508.0
 26 01 2015  01 56  -14.3992 17998.2 -13516.0 -36.9053 22508.2
 26 01 2015  01 57  -14.3993 17998.3 -13515.8 -36.9046 22508.1
 26 01 2015  01 58  -14.3997 17998.0 -13515.4 -36.9043 22507.6
 26 01 2015  01 59  -14.3998 17998.2 -13515.9 -36.9048 22508.1
 26 01 2015  02 00  -14.3994 17998.4 -13515.7 -36.9043 22508.1
 26 01 2015  02 01  -14.3991 17998.3 -13515.5 -36.9039 22507.9
 26 01 2015  02 02  -14.3988 17998.2 -13515.6 -36.9044 22507.9
 26 01 2015  02 03  -14.3988 17998.2 -13515.7 -36.9045 22508.0
 26 01 2015  02 04  -14.3990 17998.1 -13515.5 -36.9043 22507.8
 26 01 2015  02 05  -14.3991 17997.7 -13515.5 -36.9048 22507.5
 26 01 2015  02 06  -14.3996 17997.2 -13515.6 -36.9058 22507.1
 26 01 2015  02 07  -14.4003 17996.9 -13515.3 -36.9058 22506.7
 26 01 2015  02 08  -14.4006 17996.6 -13515.2 -36.9060 22506.4
 26 01 2015  02 09  -14.4005 17996.3 -13515.6 -36.9071 22506.4
 26 01 2015  02 10  -14.4004 17996.2 -13516.1 -36.9083 22506.6
 26 01 2015  02 11  -14.4004 17996.2 -13515.8 -36.9077 22506.5
 26 01 2015  02 12  -14.4004 17996.5 -13516.2 -36.9081 22506.9
 26 01 2015  02 13  -14.4006 17996.8 -13515.8 -36.9070 22506.9
 26 01 2015  02 14  -14.4009 17997.0 -13516.4 -36.9079 22507.4
 26 01 2015  02 15  -14.4011 17997.1 -13516.1 -36.9070 22507.4
 26 01 2015  02 16  -14.4016 17997.0 -13516.0 -36.9069 22507.2
 26 01 2015  02 17  -14.4019 17997.1 -13516.3 -36.9075 22507.5
 26 01 2015  02 18  -14.4023 17997.3 -13516.1 -36.9067 22507.4
 26 01 2015  02 19  -14.4024 17997.2 -13516.6 -36.9079 22507.8
 26 01 2015  02 20  -14.4031 17997.0 -13515.7 -36.9063 22507.0
 26 01 2015  02 21  -14.4034 17996.7 -13516.2 -36.9079 22507.1
 26 01 2015  02 22  -14.4040 17996.5 -13516.2 -36.9082 22506.9
 26 01 2015  02 23  -14.4042 17996.8 -13516.0 -36.9072 22507.1
 26 01 2015  02 24  -14.4047 17997.1 -13516.2 -36.9072 22507.5
 26 01 2015  02 25  -14.4053 17997.1 -13516.6 -36.9081 22507.7
 26 01 2015  02 26  -14.4056 17997.4 -13516.0 -36.9064 22507.6
 26 01 2015  02 27  -14.4052 17997.7 -13516.7 -36.9073 22508.2
 26 01 2015  02 28  -14.4049 17997.8 -13516.5 -36.9067 22508.2
 26 01 2015  02 29  -14.4057 17997.8 -13516.5 -36.9068 22508.1
 26 01 2015  02 30  -14.4060 17997.9 -13516.6 -36.9069 22508.3
 26 01 2015  02 31  -14.4069 17997.7 -13516.2 -36.9063 22507.9
 26 01 2015  02 32  -14.4072 17997.7 -13516.4 -36.9067 22508.0
 26 01 2015  02 33  -14.4073 17997.7 -13516.5 -36.9070 22508.1
 26 01 2015  02 34  -14.4079 17997.3 -13516.5 -36.9076 22507.7
 26 01 2015  02 35  -14.4083 17997.0 -13516.5 -36.9081 22507.5
 26 01 2015  02 36  -14.4083 17996.7 -13516.5 -36.9084 22507.2
 26 01 2015  02 37  -14.4085 17996.7 -13516.5 -36.9085 22507.2
 26 01 2015  02 38  -14.4086 17996.5 -13516.4 -36.9086 22507.0
 26 01 2015  02 39  -14.4088 17996.2 -13516.4 -36.9091 22506.8
 26 01 2015  02 40  -14.4083 17996.2 -13516.6 -36.9096 22506.9
 26 01 2015  02 41  -14.4087 17995.6 -13516.5 -36.9102 22506.4
 26 01 2015  02 42  -14.4086 17995.4 -13516.5 -36.9104 22506.2
 26 01 2015  02 43  -14.4093 17995.0 -13516.6 -36.9112 22506.0
 26 01 2015  02 44  -14.4099 17994.9 -13516.8 -36.9118 22506.0
 26 01 2015  02 45  -14.4106 17994.6 -13516.5 -36.9117 22505.6
 26 01 2015  02 46  -14.4113 17994.3 -13516.6 -36.9123 22505.4
 26 01 2015  02 47  -14.4119 17994.1 -13516.9 -36.9133 22505.4
 26 01 2015  02 48  -14.4120 17994.0 -13517.0 -36.9137 22505.4
 26 01 2015  02 49  -14.4126 17993.7 -13516.4 -36.9130 22504.8
 26 01 2015  02 50  -14.4134 17993.4 -13517.1 -36.9147 22504.9
 26 01 2015  02 51  -14.4136 17993.0 -13516.6 -36.9143 22504.3
 26 01 2015  02 52  -14.4140 17992.3 -13516.9 -36.9159 22504.0
 26 01 2015  02 53  -14.4139 17992.2 -13516.8 -36.9159 22503.9
 26 01 2015  02 54  -14.4138 17992.0 -13516.9 -36.9165 22503.8
 26 01 2015  02 55  -14.4139 17991.7 -13517.0 -36.9172 22503.6
 26 01 2015  02 56  -14.4146 17991.2 -13517.1 -36.9182 22503.2
 26 01 2015  02 57  -14.4149 17991.0 -13517.1 -36.9184 22503.1
 26 01 2015  02 58  -14.4154 17990.7 -13517.8 -36.9204 22503.2
 26 01 2015  02 59  -14.4158 17990.3 -13517.0 -36.9193 22502.5
 26 01 2015  03 00  -14.4158 17990.2 -13517.3 -36.9201 22502.5
 26 01 2015  03 01  -14.4167 17989.6 -13517.5 -36.9214 22502.2
 26 01 2015  03 02  -14.4181 17989.1 -13517.0 -36.9212 22501.5
 26 01 2015  03 03  -14.4184 17989.1 -13517.4 -36.9220 22501.7
 26 01 2015  03 04  -14.4192 17988.5 -13517.8 -36.9236 22501.5
 26 01 2015  03 05  -14.4205 17987.6 -13517.4 -36.9243 22500.6
 26 01 2015  03 06  -14.4219 17986.9 -13517.3 -36.9252 22499.9
 26 01 2015  03 07  -14.4237 17985.8 -13517.2 -36.9265 22498.9
 26 01 2015  03 08  -14.4245 17985.3 -13517.6 -36.9281 22498.8
 26 01 2015  03 09  -14.4255 17984.7 -13517.6 -36.9290 22498.3
 26 01 2015  03 10  -14.4256 17984.6 -13517.9 -36.9296 22498.4
 26 01 2015  03 11  -14.4259 17984.4 -13517.7 -36.9298 22498.1
 26 01 2015  03 12  -14.4258 17984.1 -13518.5 -36.9318 22498.4
 26 01 2015  03 13  -14.4266 17983.2 -13517.9 -36.9321 22497.3
 26 01 2015  03 14  -14.4273 17982.7 -13517.9 -36.9326 22496.9
 26 01 2015  03 15  -14.4280 17982.3 -13517.9 -36.9333 22496.6
 26 01 2015  03 16  -14.4289 17982.1 -13518.0 -36.9338 22496.5
 26 01 2015  03 17  -14.4297 17981.9 -13518.4 -36.9350 22496.6
 26 01 2015  03 18  -14.4307 17981.7 -13518.1 -36.9347 22496.2
 26 01 2015  03 19  -14.4312 17981.5 -13518.5 -36.9359 22496.3
 26 01 2015  03 20  -14.4318 17981.1 -13518.2 -36.9358 22495.8
 26 01 2015  03 21  -14.4317 17981.2 -13518.3 -36.9358 22495.9
 26 01 2015  03 22  -14.4317 17981.5 -13517.9 -36.9346 22495.9
 26 01 2015  03 23  -14.4314 17981.9 -13518.6 -36.9354 22496.6
 26 01 2015  03 24  -14.4312 17982.1 -13519.2 -36.9363 22497.3
 26 01 2015  03 25  -14.4308 17982.5 -13518.4 -36.9341 22497.1
 26 01 2015  03 26  -14.4304 17983.2 -13518.6 -36.9335 22497.7
 26 01 2015  03 27  -14.4303 17983.8 -13519.3 -36.9339 22498.7
 26 01 2015  03 28  -14.4308 17984.1 -13518.9 -36.9327 22498.7
 26 01 2015  03 29  -14.4313 17984.2 -13518.9 -36.9325 22498.7
 26 01 2015  03 30  -14.4324 17984.3 -13518.9 -36.9324 22498.8
 26 01 2015  03 31  -14.4336 17984.3 -13518.5 -36.9315 22498.6
 26 01 2015  03 32  -14.4344 17984.2 -13518.3 -36.9311 22498.3
 26 01 2015  03 33  -14.4348 17984.2 -13518.9 -36.9325 22498.7
 26 01 2015  03 34  -14.4355 17984.4 -13518.4 -36.9311 22498.5
 26 01 2015  03 35  -14.4359 17984.4 -13518.5 -36.9314 22498.6
 26 01 2015  03 36  -14.4360 17984.4 -13518.8 -36.9320 22498.8
 26 01 2015  03 37  -14.4362 17984.3 -13518.0 -36.9304 22498.2
 26 01 2015  03 38  -14.4357 17984.4 -13518.4 -36.9311 22498.6
 26 01 2015  03 39  -14.4352 17984.6 -13518.5 -36.9310 22498.8
 26 01 2015  03 40  -14.4352 17985.0 -13518.4 -36.9302 22499.1
 26 01 2015  03 41  -14.4349 17985.3 -13518.6 -36.9302 22499.4
 26 01 2015  03 42  -14.4345 17985.6 -13518.4 -36.9292 22499.6
 26 01 2015  03 43  -14.4341 17986.0 -13518.5 -36.9289 22499.9
 26 01 2015  03 44  -14.4337 17986.3 -13518.3 -36.9281 22500.1
 26 01 2015  03 45  -14.4339 17986.6 -13518.5 -36.9280 22500.4
 26 01 2015  03 46  -14.4341 17987.1 -13518.4 -36.9270 22500.8
 26 01 2015  03 47  -14.4340 17987.5 -13518.4 -36.9263 22501.1
 26 01 2015  03 48  -14.4338 17988.1 -13518.4 -36.9254 22501.5
 26 01 2015  03 49  -14.4340 17988.4 -13518.4 -36.9249 22501.8
 26 01 2015  03 50  -14.4342 17988.8 -13518.1 -36.9239 22501.9
 26 01 2015  03 51  -14.4344 17989.2 -13518.3 -36.9236 22502.4
 26 01 2015  03 52  -14.4341 17989.8 -13518.1 -36.9223 22502.8
 26 01 2015  03 53  -14.4335 17990.4 -13518.1 -36.9214 22503.2
 26 01 2015  03 54  -14.4329 17990.9 -13518.1 -36.9206 22503.6
 26 01 2015  03 55  -14.4326 17991.3 -13517.8 -36.9195 22503.7
 26 01 2015  03 56  -14.4323 17991.7 -13517.9 -36.9189 22504.1
 26 01 2015  03 57  -14.4320 17992.0 -13517.9 -36.9185 22504.4
 26 01 2015  03 58  -14.4318 17992.3 -13518.2 -36.9185 22504.7
 26 01 2015  03 59  -14.4316 17992.6 -13517.7 -36.9171 22504.7
 26 01 2015  04 00  -14.4313 17992.5 -13517.9 -36.9178 22504.7
 26 01 2015  04 01  -14.4310 17992.6 -13517.6 -36.9168 22504.7
 26 01 2015  04 02  -14.4307 17992.9 -13517.7 -36.9167 22504.9
 26 01 2015  04 03  -14.4301 17993.3 -13518.1 -36.9169 22505.5
 26 01 2015  04 04  -14.4297 17993.6 -13517.3 -36.9149 22505.3
 26 01 2015  04 05  -14.4291 17993.9 -13517.6 -36.9150 22505.6
 26 01 2015  04 06  -14.4281 17994.3 -13517.2 -36.9136 22505.8
 26 01 2015  04 07  -14.4275 17994.3 -13517.2 -36.9135 22505.8
 26 01 2015  04 08  -14.4268 17994.6 -13517.1 -36.9130 22505.9
 26 01 2015  04 09  -14.4264 17994.9 -13517.1 -36.9126 22506.2
 26 01 2015  04 10  -14.4266 17994.8 -13516.8 -36.9119 22505.9
 26 01 2015  04 11  -14.4270 17994.8 -13516.8 -36.9121 22505.9
 26 01 2015  04 12  -14.4270 17995.0 -13516.9 -36.9118 22506.1
 26 01 2015  04 13  -14.4271 17995.0 -13516.9 -36.9119 22506.2
 26 01 2015  04 14  -14.4270 17995.1 -13516.6 -36.9111 22506.1
 26 01 2015  04 15  -14.4268 17995.3 -13516.7 -36.9110 22506.2
 26 01 2015  04 16  -14.4266 17995.5 -13516.5 -36.9104 22506.3
 26 01 2015  04 17  -14.4270 17995.6 -13516.4 -36.9100 22506.3
 26 01 2015  04 18  -14.4273 17995.6 -13517.2 -36.9115 22506.8
 26 01 2015  04 19  -14.4280 17995.6 -13517.1 -36.9113 22506.8
 26 01 2015  04 20  -14.4290 17995.4 -13517.1 -36.9118 22506.6
 26 01 2015  04 21  -14.4298 17995.3 -13517.0 -36.9116 22506.5
 26 01 2015  04 22  -14.4305 17995.2 -13517.1 -36.9119 22506.5
 26 01 2015  04 23  -14.4313 17995.1 -13516.4 -36.9107 22505.9
 26 01 2015  04 24  -14.4317 17995.1 -13517.2 -36.9123 22506.4
 26 01 2015  04 25  -14.4324 17995.0 -13516.8 -36.9118 22506.0
 26 01 2015  04 26  -14.4330 17994.9 -13516.9 -36.9122 22506.1
 26 01 2015  04 27  -14.4336 17994.8 -13517.2 -36.9127 22506.1
 26 01 2015  04 28  -14.4345 17994.7 -13516.5 -36.9116 22505.6
 26 01 2015  04 29  -14.4354 17994.5 -13516.2 -36.9113 22505.3
 26 01 2015  04 30  -14.4359 17994.3 -13516.8 -36.9127 22505.5
 26 01 2015  04 31  -14.4367 17994.2 -13516.9 -36.9132 22505.5
 26 01 2015  04 32  -14.4379 17993.8 -13516.4 -36.9127 22504.9
 26 01 2015  04 33  -14.4390 17993.4 -13516.8 -36.9141 22504.8
 26 01 2015  04 34  -14.4403 17993.1 -13516.2 -36.9133 22504.2
 26 01 2015  04 35  -14.4414 17992.9 -13516.5 -36.9143 22504.3
 26 01 2015  04 36  -14.4424 17992.9 -13516.4 -36.9140 22504.2
 26 01 2015  04 37  -14.4431 17993.2 -13516.5 -36.9137 22504.5
 26 01 2015  04 38  -14.4439 17993.7 -13516.5 -36.9132 22504.9
 26 01 2015  04 39  -14.4443 17994.4 -13517.1 -36.9132 22505.8
 26 01 2015  04 40  -14.4445 17995.2 -13517.3 -36.9124 22506.5
 26 01 2015  04 41  -14.4450 17995.6 -13516.7 -36.9105 22506.5
 26 01 2015  04 42  -14.4452 17996.2 -13517.0 -36.9102 22507.1
 26 01 2015  04 43  -14.4456 17996.4 -13517.1 -36.9101 22507.4
 26 01 2015  04 44  -14.4460 17996.6 -13517.0 -36.9096 22507.4
 26 01 2015  04 45  -14.4465 17996.9 -13516.8 -36.9088 22507.6
 26 01 2015  04 46  -14.4463 17997.4 -13517.1 -36.9085 22508.2
 26 01 2015  04 47  -14.4465 17997.6 -13517.2 -36.9084 22508.4
 26 01 2015  04 48  -14.4465 17997.8 -13516.7 -36.9070 22508.3
 26 01 2015  04 49  -14.4465 17998.0 -13516.8 -36.9070 22508.4
 26 01 2015  04 50  -14.4464 17998.0 -13516.5 -36.9064 22508.3
 26 01 2015  04 51  -14.4462 17997.6 -13516.1 -36.9063 22507.7
 26 01 2015  04 52  -14.4459 17997.1 -13515.9 -36.9067 22507.3
 26 01 2015  04 53  -14.4453 17996.8 -13516.2 -36.9078 22507.2
 26 01 2015  04 54  -14.4447 17996.6 -13516.0 -36.9077 22506.9
 26 01 2015  04 55  -14.4441 17996.5 -13516.1 -36.9080 22506.9
 26 01 2015  04 56  -14.4436 17996.4 -13516.2 -36.9083 22506.8
 26 01 2015  04 57  -14.4429 17996.5 -13516.2 -36.9081 22507.0
 26 01 2015  04 58  -14.4425 17996.6 -13516.3 -36.9081 22507.1
 26 01 2015  04 59  -14.4422 17996.8 -13516.0 -36.9073 22507.0
 26 01 2015  05 00  -14.4418 17997.0 -13516.6 -36.9082 22507.5
 26 01 2015  05 01  -14.4416 17997.2 -13516.5 -36.9077 22507.6
 26 01 2015  05 02  -14.4413 17997.2 -13516.3 -36.9073 22507.6
 26 01 2015  05 03  -14.4410 17997.4 -13516.1 -36.9066 22507.5
 26 01 2015  05 04  -14.4404 17997.5 -13516.0 -36.9062 22507.6
 26 01 2015  05 05  -14.4397 17997.6 -13515.9 -36.9058 22507.6
 26 01 2015  05 06  -14.4389 17997.9 -13516.2 -36.9061 22508.1
 26 01 2015  05 07  -14.4381 17997.9 -13516.5 -36.9065 22508.2
 26 01 2015  05 08  -14.4377 17998.2 -13515.9 -36.9050 22508.1
 26 01 2015  05 09  -14.4374 17998.3 -13516.4 -36.9057 22508.5
 26 01 2015  05 10  -14.4372 17998.3 -13516.2 -36.9054 22508.3
 26 01 2015  05 11  -14.4369 17998.0 -13516.1 -36.9057 22508.1
 26 01 2015  05 12  -14.4365 17997.8 -13516.0 -36.9057 22507.8
 26 01 2015  05 13  -14.4361 17997.5 -13516.3 -36.9068 22507.7
 26 01 2015  05 14  -14.4358 17997.3 -13516.2 -36.9069 22507.5
 26 01 2015  05 15  -14.4356 17997.3 -13515.9 -36.9064 22507.4
 26 01 2015  05 16  -14.4355 17997.5 -13515.8 -36.9059 22507.5
 26 01 2015  05 17  -14.4355 17997.8 -13516.0 -36.9058 22507.8
 26 01 2015  05 18  -14.4357 17998.2 -13516.0 -36.9052 22508.2
 26 01 2015  05 19  -14.4359 17998.8 -13516.5 -36.9053 22508.9
 26 01 2015  05 20  -14.4361 17999.4 -13516.1 -36.9036 22509.1
 26 01 2015  05 21  -14.4362 17999.8 -13516.5 -36.9037 22509.8
 26 01 2015  05 22  -14.4360 18000.5 -13516.8 -36.9032 22510.5
 26 01 2015  05 23  -14.4360 18001.1 -13516.3 -36.9013 22510.7
 26 01 2015  05 24  -14.4354 18002.5 -13516.4 -36.8993 22511.9
 26 01 2015  05 25  -14.4349 18003.6 -13516.6 -36.8980 22512.9
 26 01 2015  05 26  -14.4345 18004.7 -13516.6 -36.8964 22513.7
 26 01 2015  05 27  -14.4345 18005.3 -13516.6 -36.8954 22514.2
 26 01 2015  05 28  -14.4344 18006.0 -13516.6 -36.8946 22514.8
 26 01 2015  05 29  -14.4346 18006.5 -13516.0 -36.8925 22514.8
 26 01 2015  05 30  -14.4345 18007.0 -13516.3 -36.8923 22515.3
 26 01 2015  05 31  -14.4348 18006.9 -13516.4 -36.8926 22515.3
 26 01 2015  05 32  -14.4350 18006.7 -13516.0 -36.8920 22515.0
 26 01 2015  05 33  -14.4352 18006.5 -13515.6 -36.8916 22514.6
 26 01 2015  05 34  -14.4350 18006.4 -13515.8 -36.8921 22514.6
 26 01 2015  05 35  -14.4349 18006.5 -13515.5 -36.8915 22514.5
 26 01 2015  05 36  -14.4347 18006.5 -13515.5 -36.8915 22514.5
 26 01 2015  05 37  -14.4345 18006.4 -13515.8 -36.8922 22514.6
 26 01 2015  05 38  -14.4346 18006.4 -13515.5 -36.8917 22514.4
 26 01 2015  05 39  -14.4346 18006.3 -13515.3 -36.8912 22514.2
 26 01 2015  05 40  -14.4345 18006.6 -13515.6 -36.8916 22514.6
 26 01 2015  05 41  -14.4346 18006.8 -13515.5 -36.8910 22514.7
 26 01 2015  05 42  -14.4346 18007.0 -13515.4 -36.8904 22514.8
 26 01 2015  05 43  -14.4346 18007.1 -13515.2 -36.8900 22514.8
 26 01 2015  05 44  -14.4347 18007.0 -13515.5 -36.8907 22514.9
 26 01 2015  05 45  -14.4349 18006.7 -13515.5 -36.8913 22514.6
 26 01 2015  05 46  -14.4349 18006.6 -13515.3 -36.8910 22514.5
 26 01 2015  05 47  -14.4349 18006.4 -13515.4 -36.8914 22514.3
 26 01 2015  05 48  -14.4350 18005.8 -13515.3 -36.8920 22513.8
 26 01 2015  05 49  -14.4349 18005.6 -13515.5 -36.8929 22513.8
 26 01 2015  05 50  -14.4351 18005.3 -13514.7 -36.8916 22513.1
 26 01 2015  05 51  -14.4353 18005.2 -13514.9 -36.8922 22513.1
 26 01 2015  05 52  -14.4351 18005.9 -13514.8 -36.8910 22513.7
 26 01 2015  05 53  -14.4347 18006.7 -13515.9 -36.8919 22514.9
 26 01 2015  05 54  -14.4349 18007.0 -13515.2 -36.8901 22514.7
 26 01 2015  05 55  -14.4351 18006.9 -13515.4 -36.8907 22514.7
 26 01 2015  05 56  -14.4350 18007.1 -13515.2 -36.8900 22514.8
 26 01 2015  05 57  -14.4348 18007.3 -13515.6 -36.8905 22515.2
 26 01 2015  05 58  -14.4348 18007.6 -13514.8 -36.8884 22514.9
 26 01 2015  05 59  -14.4349 18007.7 -13515.0 -36.8887 22515.2
 26 01 2015  06 00  -14.4350 18007.8 -13515.1 -36.8888 22515.3
 26 01 2015  06 01  -14.4350 18008.0 -13515.2 -36.8886 22515.5
 26 01 2015  06 02  -14.4354 18008.2 -13514.7 -36.8872 22515.4
 26 01 2015  06 03  -14.4355 18008.4 -13515.1 -36.8877 22515.7
 26 01 2015  06 04  -14.4357 18008.5 -13515.0 -36.8874 22515.8
 26 01 2015  06 05  -14.4356 18008.5 -13515.4 -36.8881 22516.1
 26 01 2015  06 06  -14.4357 18008.4 -13514.9 -36.8872 22515.7
 26 01 2015  06 07  -14.4357 18008.4 -13514.9 -36.8873 22515.7
 26 01 2015  06 08  -14.4357 18008.3 -13514.8 -36.8873 22515.5
 26 01 2015  06 09  -14.4357 18008.2 -13514.8 -36.8874 22515.5
 26 01 2015  06 10  -14.4351 18008.4 -13515.2 -36.8880 22515.9
 26 01 2015  06 11  -14.4350 18008.3 -13514.6 -36.8868 22515.4
 26 01 2015  06 12  -14.4349 18008.4 -13514.8 -36.8871 22515.6
 26 01 2015  06 13  -14.4345 18008.5 -13515.3 -36.8880 22516.0
 26 01 2015  06 14  -14.4341 18008.7 -13515.1 -36.8872 22516.0
 26 01 2015  06 15  -14.4337 18009.1 -13514.3 -36.8851 22515.9
 26 01 2015  06 16  -14.4332 18009.7 -13515.0 -36.8856 22516.8
 26 01 2015  06 17  -14.4327 18010.4 -13515.3 -36.8851 22517.5
 26 01 2015  06 18  -14.4324 18010.9 -13515.3 -36.8842 22517.9
 26 01 2015  06 19  -14.4323 18011.3 -13515.5 -36.8841 22518.4
 26 01 2015  06 20  -14.4320 18011.5 -13515.7 -36.8842 22518.6
 26 01 2015  06 21  -14.4319 18011.6 -13515.5 -36.8837 22518.6
 26 01 2015  06 22  -14.4315 18011.6 -13515.3 -36.8833 22518.5
 26 01 2015  06 23  -14.4313 18011.5 -13514.8 -36.8825 22518.1
 26 01 2015  06 24  -14.4309 18011.3 -13514.7 -36.8825 22517.8
 26 01 2015  06 25  -14.4305 18011.0 -13515.3 -36.8841 22517.9
 26 01 2015  06 26  -14.4302 18010.8 -13514.9 -36.8836 22517.5
 26 01 2015  06 27  -14.4300 18010.8 -13514.7 -36.8832 22517.4
 26 01 2015  06 28  -14.4299 18010.7 -13514.6 -36.8833 22517.3
 26 01 2015  06 29  -14.4299 18010.7 -13514.6 -36.8833 22517.3
 26 01 2015  06 30  -14.4298 18010.7 -13514.9 -36.8837 22517.5
 26 01 2015  06 31  -14.4296 18010.8 -13515.0 -36.8837 22517.6
 26 01 2015  06 32  -14.4292 18010.9 -13515.2 -36.8842 22517.9
 26 01 2015  06 33  -14.4290 18011.1 -13515.3 -36.8839 22518.1
 26 01 2015  06 34  -14.4287 18011.7 -13514.9 -36.8823 22518.3
 26 01 2015  06 35  -14.4285 18012.2 -13514.8 -36.8813 22518.6
 26 01 2015  06 36  -14.4280 18012.7 -13515.1 -36.8812 22519.3
 26 01 2015  06 37  -14.4279 18013.0 -13514.8 -36.8802 22519.3
 26 01 2015  06 38  -14.4277 18013.1 -13515.1 -36.8805 22519.5
 26 01 2015  06 39  -14.4277 18013.2 -13514.4 -36.8791 22519.2
 26 01 2015  06 40  -14.4272 18013.4 -13514.6 -36.8791 22519.5
 26 01 2015  06 41  -14.4268 18013.4 -13514.8 -36.8794 22519.6
 26 01 2015  06 42  -14.4265 18013.3 -13515.1 -36.8802 22519.7
 26 01 2015  06 43  -14.4261 18013.4 -13514.7 -36.8792 22519.5
 26 01 2015  06 44  -14.4260 18013.1 -13514.6 -36.8795 22519.2
 26 01 2015  06 45  -14.4262 18012.2 -13514.5 -36.8807 22518.4
 26 01 2015  06 46  -14.4262 18011.4 -13514.2 -36.8813 22517.6
 26 01 2015  06 47  -14.4260 18011.0 -13514.4 -36.8823 22517.4
 26 01 2015  06 48  -14.4260 18010.5 -13514.5 -36.8833 22517.1
 26 01 2015  06 49  -14.4258 18010.1 -13514.4 -36.8836 22516.7
 26 01 2015  06 50  -14.4253 18010.0 -13514.7 -36.8844 22516.8
 26 01 2015  06 51  -14.4249 18010.1 -13514.6 -36.8842 22516.9
 26 01 2015  06 52  -14.4244 18010.6 -13514.6 -36.8834 22517.2
 26 01 2015  06 53  -14.4235 18011.0 -13514.9 -36.8833 22517.7
 26 01 2015  06 54  -14.4230 18011.4 -13514.8 -36.8827 22518.0
 26 01 2015  06 55  -14.4223 18011.9 -13514.8 -36.8818 22518.3
 26 01 2015  06 56  -14.4216 18012.3 -13515.0 -36.8815 22518.8
 26 01 2015  06 57  -14.4209 18012.9 -13515.1 -36.8809 22519.3
 26 01 2015  06 58  -14.4200 18013.2 -13514.9 -36.8800 22519.5
 26 01 2015  06 59  -14.4188 18013.5 -13515.0 -36.8798 22519.8
 26 01 2015  07 00  -14.4172 18013.9 -13515.1 -36.8793 22520.1
 26 01 2015  07 01  -14.4153 18014.0 -13515.1 -36.8792 22520.2
 26 01 2015  07 02  -14.4139 18014.2 -13514.8 -36.8784 22520.2
 26 01 2015  07 03  -14.4127 18014.5 -13514.9 -36.8781 22520.5
 26 01 2015  07 04  -14.4120 18014.4 -13514.9 -36.8782 22520.5
 26 01 2015  07 05  -14.4112 18014.4 -13514.7 -36.8779 22520.3
 26 01 2015  07 06  -14.4103 18014.5 -13514.8 -36.8777 22520.5
 26 01 2015  07 07  -14.4094 18014.7 -13514.9 -36.8778 22520.7
 26 01 2015  07 08  -14.4093 18014.4 -13514.7 -36.8777 22520.3
 26 01 2015  07 09  -14.4093 18014.4 -13514.8 -36.8779 22520.4
 26 01 2015  07 10  -14.4091 18014.3 -13514.8 -36.8781 22520.3
 26 01 2015  07 11  -14.4088 18014.6 -13514.8 -36.8776 22520.5
 26 01 2015  07 12  -14.4087 18014.8 -13514.9 -36.8776 22520.8
 26 01 2015  07 13  -14.4087 18015.1 -13514.9 -36.8770 22521.0
 26 01 2015  07 14  -14.4084 18015.3 -13515.0 -36.8770 22521.2
 26 01 2015  07 15  -14.4086 18015.5 -13514.9 -36.8765 22521.3
 26 01 2015  07 16  -14.4089 18015.8 -13514.9 -36.8761 22521.6
 26 01 2015  07 17  -14.4092 18016.0 -13515.0 -36.8759 22521.9
 26 01 2015  07 18  -14.4094 18016.1 -13514.9 -36.8755 22521.8
 26 01 2015  07 19  -14.4097 18016.1 -13514.7 -36.8752 22521.7
 26 01 2015  07 20  -14.4099 18015.9 -13514.9 -36.8760 22521.6
 26 01 2015  07 21  -14.4102 18015.6 -13514.7 -36.8760 22521.3
 26 01 2015  07 22  -14.4108 18015.5 -13514.8 -36.8763 22521.3
 26 01 2015  07 23  -14.4110 18015.6 -13514.8 -36.8760 22521.4
 26 01 2015  07 24  -14.4114 18015.7 -13514.9 -36.8762 22521.5
 26 01 2015  07 25  -14.4120 18015.7 -13514.6 -36.8757 22521.3
 26 01 2015  07 26  -14.4115 18015.8 -13515.1 -36.8765 22521.7
 26 01 2015  07 27  -14.4113 18015.8 -13515.3 -36.8767 22521.8
 26 01 2015  07 28  -14.4109 18015.8 -13514.9 -36.8761 22521.6
 26 01 2015  07 29  -14.4112 18015.8 -13514.8 -36.8757 22521.5
 26 01 2015  07 30  -14.4111 18016.1 -13514.5 -36.8748 22521.6
 26 01 2015  07 31  -14.4105 18016.1 -13515.3 -36.8763 22522.1
 26 01 2015  07 32  -14.4106 18016.0 -13514.3 -36.8745 22521.4
 26 01 2015  07 33  -14.4103 18015.7 -13515.0 -36.8763 22521.6
 26 01 2015  07 34  -14.4100 18015.6 -13514.6 -36.8757 22521.2
 26 01 2015  07 35  -14.4100 18015.3 -13514.8 -36.8765 22521.1
 26 01 2015  07 36  -14.4100 18014.9 -13514.8 -36.8772 22520.8
 26 01 2015  07 37  -14.4098 18014.7 -13515.2 -36.8784 22520.9
 26 01 2015  07 38  -14.4101 18014.4 -13514.9 -36.8782 22520.4
 26 01 2015  07 39  -14.4103 18014.1 -13515.1 -36.8791 22520.3
 26 01 2015  07 40  -14.4104 18014.1 -13515.1 -36.8791 22520.3
 26 01 2015  07 41  -14.4107 18014.1 -13514.9 -36.8786 22520.2
 26 01 2015  07 42  -14.4109 18013.8 -13515.6 -36.8806 22520.4
 26 01 2015  07 43  -14.4112 18014.1 -13515.2 -36.8791 22520.4
 26 01 2015  07 44  -14.4109 18014.1 -13515.8 -36.8804 22520.8
 26 01 2015  07 45  -14.4111 18014.3 -13515.2 -36.8789 22520.6
 26 01 2015  07 46  -14.4111 18014.0 -13515.5 -36.8800 22520.5
 26 01 2015  07 47  -14.4116 18014.1 -13515.6 -36.8801 22520.6
 26 01 2015  07 48  -14.4115 18014.1 -13515.5 -36.8798 22520.6
 26 01 2015  07 49  -14.4119 18014.2 -13515.5 -36.8797 22520.6
 26 01 2015  07 50  -14.4118 18014.3 -13515.6 -36.8797 22520.8
 26 01 2015  07 51  -14.4125 18014.3 -13515.5 -36.8795 22520.7
 26 01 2015  07 52  -14.4124 18014.5 -13515.5 -36.8793 22520.9
 26 01 2015  07 53  -14.4122 18014.7 -13516.0 -36.8800 22521.3
 26 01 2015  07 54  -14.4121 18014.6 -13515.2 -36.8785 22520.8
 26 01 2015  07 55  -14.4115 18014.8 -13515.6 -36.8789 22521.2
 26 01 2015  07 56  -14.4121 18014.8 -13515.8 -36.8794 22521.3
 26 01 2015  07 57  -14.4121 18014.6 -13515.5 -36.8791 22521.0
 26 01 2015  07 58  -14.4124 18014.4 -13515.0 -36.8784 22520.5
 26 01 2015  07 59  -14.4124 18014.3 -13515.4 -36.8793 22520.6
 26 01 2015  08 00  -14.4123 18014.1 -13515.3 -36.8795 22520.5
 26 01 2015  08 01  -14.4130 18014.1 -13515.7 -36.8802 22520.7
 26 01 2015  08 02  -14.4128 18014.2 -13515.4 -36.8794 22520.6
 26 01 2015  08 03  -14.4133 18014.1 -13515.7 -36.8802 22520.7
 26 01 2015  08 04  -14.4137 18013.9 -13515.6 -36.8803 22520.4
 26 01 2015  08 05  -14.4139 18013.7 -13515.6 -36.8807 22520.3
 26 01 2015  08 06  -14.4147 18013.5 -13515.7 -36.8812 22520.2
 26 01 2015  08 07  -14.4144 18013.5 -13515.9 -36.8816 22520.4
 26 01 2015  08 08  -14.4139 18013.4 -13515.6 -36.8812 22520.1
 26 01 2015  08 09  -14.4141 18013.2 -13515.9 -36.8820 22520.1
 26 01 2015  08 10  -14.4142 18013.0 -13515.8 -36.8821 22519.9
 26 01 2015  08 11  -14.4144 18013.0 -13516.0 -36.8825 22520.0
 26 01 2015  08 12  -14.4142 18012.9 -13516.0 -36.8826 22519.9
 26 01 2015  08 13  -14.4141 18012.9 -13516.1 -36.8830 22520.0
 26 01 2015  08 14  -14.4136 18012.7 -13516.1 -36.8832 22519.9
 26 01 2015  08 15  -14.4134 18012.4 -13516.0 -36.8834 22519.5
 26 01 2015  08 16  -14.4130 18012.6 -13516.3 -36.8836 22519.9
 26 01 2015  08 17  -14.4135 18012.4 -13516.3 -36.8840 22519.7
 26 01 2015  08 18  -14.4139 18012.5 -13516.6 -36.8845 22519.9
 26 01 2015  08 19  -14.4148 18012.6 -13516.2 -36.8835 22519.8
 26 01 2015  08 20  -14.4157 18012.5 -13516.1 -36.8835 22519.6
 26 01 2015  08 21  -14.4164 18012.3 -13516.6 -36.8849 22519.8
 26 01 2015  08 22  -14.4170 18012.1 -13516.8 -36.8857 22519.8
 26 01 2015  08 23  -14.4179 18011.9 -13516.3 -36.8847 22519.3
 26 01 2015  08 24  -14.4186 18011.9 -13516.7 -36.8857 22519.5
 26 01 2015  08 25  -14.4191 18011.9 -13516.4 -36.8851 22519.3
 26 01 2015  08 26  -14.4197 18011.7 -13516.4 -36.8854 22519.2
 26 01 2015  08 27  -14.4203 18012.0 -13516.5 -36.8851 22519.6
 26 01 2015  08 28  -14.4199 18012.6 -13517.2 -36.8855 22520.4
 26 01 2015  08 29  -14.4192 18012.5 -13516.6 -36.8845 22519.9
 26 01 2015  08 30  -14.4187 18012.7 -13516.5 -36.8841 22520.1
 26 01 2015  08 31  -14.4179 18012.8 -13517.1 -36.8850 22520.5
 26 01 2015  08 32  -14.4151 18013.3 -13517.1 -36.8843 22520.9
 26 01 2015  08 33  -14.4155 18013.0 -13517.0 -36.8847 22520.6
 26 01 2015  08 34  -14.4151 18015.5 -13517.4 -36.8816 22522.8
 26 01 2015  08 35  -14.4130 18023.5 -13519.1 -36.8729 22530.2
 26 01 2015  08 36  -14.4106 18027.7 -13519.4 -36.8670 22533.7
 26 01 2015  08 37  -14.4110 18029.2 -13518.8 -36.8635 22534.7
 26 01 2015  08 38  -14.4094 18029.8 -13517.9 -36.8608 22534.6
 26 01 2015  08 39  -14.4083 18029.4 -13517.5 -36.8604 22534.0
 26 01 2015  08 40  -14.4067 18028.9 -13517.0 -36.8604 22533.3
 26 01 2015  08 41  -14.4051 18028.1 -13516.9 -36.8612 22532.6
 26 01 2015  08 42  -14.4048 18027.3 -13516.8 -36.8624 22531.9
 26 01 2015  08 43  -14.4033 18026.6 -13516.9 -36.8636 22531.4
 26 01 2015  08 44  -14.4027 18026.5 -13515.9 -36.8617 22530.8
 26 01 2015  08 45  -14.4012 18026.9 -13516.5 -36.8624 22531.5
 26 01 2015  08 46  -14.4010 18027.6 -13517.2 -36.8627 22532.4
 26 01 2015  08 47  -14.4014 18027.6 -13517.1 -36.8624 22532.4
 26 01 2015  08 48  -14.4013 18028.4 -13516.6 -36.8603 22532.7
 26 01 2015  08 49  -14.4024 18027.5 -13516.8 -36.8622 22532.1
 26 01 2015  08 50  -14.4017 18025.7 -13516.6 -36.8644 22530.5
 26 01 2015  08 51  -14.4014 18025.3 -13516.5 -36.8648 22530.1
 26 01 2015  08 52  -14.4039 18024.8 -13517.1 -36.8667 22530.1
 26 01 2015  08 53  -14.4030 18026.6 -13517.5 -36.8649 22531.8
 26 01 2015  08 54  -14.4038 18027.2 -13516.9 -36.8628 22531.9
 26 01 2015  08 55  -14.4041 18026.4 -13517.1 -36.8644 22531.3
 26 01 2015  08 56  -14.4039 18025.9 -13516.7 -36.8644 22530.8
 26 01 2015  08 57  -14.4043 18024.9 -13516.8 -36.8660 22530.1
 26 01 2015  08 58  -14.4045 18024.9 -13516.4 -36.8651 22529.8
 26 01 2015  08 59  -14.4030 18025.2 -13517.4 -36.8667 22530.6
 26 01 2015  09 00  -14.4006 18026.1 -13516.9 -36.8645 22531.0
 26 01 2015  09 01  -14.4023 18025.9 -13517.3 -36.8654 22531.1
 26 01 2015  09 02  -14.4022 18025.8 -13517.8 -36.8666 22531.3
 26 01 2015  09 03  -14.4030 18024.9 -13517.3 -36.8670 22530.3
 26 01 2015  09 04  -14.4040 18025.3 -13517.4 -36.8666 22530.7
 26 01 2015  09 05  -14.4059 18027.7 -13517.9 -36.8640 22532.9
 26 01 2015  09 06  -14.4072 18029.5 -13518.3 -36.8620 22534.6
 26 01 2015  09 07  -14.4092 18030.2 -13518.6 -36.8616 22535.3
 26 01 2015  09 08  -14.4102 18030.2 -13518.1 -36.8606 22535.0
 26 01 2015  09 09  -14.4109 18029.9 -13518.0 -36.8608 22534.7
 26 01 2015  09 10  -14.4112 18030.3 -13518.2 -36.8605 22535.2
 26 01 2015  09 11  -14.4120 18030.9 -13518.2 -36.8597 22535.6
 26 01 2015  09 12  -14.4124 18031.7 -13518.4 -36.8590 22536.4
 26 01 2015  09 13  -14.4130 18032.0 -13518.4 -36.8585 22536.6
 26 01 2015  09 14  -14.4126 18032.0 -13518.3 -36.8581 22536.6
 26 01 2015  09 15  -14.4103 18032.3 -13518.2 -36.8576 22536.8
 26 01 2015  09 16  -14.4084 18031.6 -13518.1 -36.8583 22536.2
 26 01 2015  09 17  -14.4067 18030.8 -13517.9 -36.8592 22535.3
 26 01 2015  09 18  -14.4057 18030.5 -13517.8 -36.8594 22535.0
 26 01 2015  09 19  -14.4049 18030.4 -13517.8 -36.8597 22535.1
 26 01 2015  09 20  -14.4046 18030.2 -13517.7 -36.8597 22534.8
 26 01 2015  09 21  -14.4039 18029.6 -13517.7 -36.8607 22534.4
 26 01 2015  09 22  -14.4034 18029.0 -13517.6 -36.8614 22533.7
 26 01 2015  09 23  -14.4038 18028.7 -13517.7 -36.8622 22533.6
 26 01 2015  09 24  -14.4037 18028.4 -13518.1 -36.8633 22533.5
 26 01 2015  09 25  -14.4050 18028.4 -13518.0 -36.8631 22533.5
 26 01 2015  09 26  -14.4043 18028.1 -13518.1 -36.8637 22533.3
 26 01 2015  09 27  -14.4043 18027.4 -13518.1 -36.8648 22532.8
 26 01 2015  09 28  -14.4058 18028.4 -13518.4 -36.8640 22533.8
 26 01 2015  09 29  -14.4065 18027.7 -13518.6 -36.8653 22533.3
 26 01 2015  09 30  -14.4056 18026.2 -13518.0 -36.8665 22531.8
 26 01 2015  09 31  -14.4050 18025.7 -13518.2 -36.8677 22531.4
 26 01 2015  09 32  -14.4051 18025.8 -13518.6 -36.8683 22531.8
 26 01 2015  09 33  -14.4052 18026.2 -13518.7 -36.8678 22532.2
 26 01 2015  09 34  -14.4041 18026.4 -13518.9 -36.8679 22532.5
 26 01 2015  09 35  -14.4040 18026.2 -13519.0 -36.8684 22532.4
 26 01 2015  09 36  -14.4037 18025.9 -13519.0 -36.8688 22532.1
 26 01 2015  09 37  -14.4033 18025.7 -13519.2 -36.8696 22532.0
 26 01 2015  09 38  -14.4027 18025.3 -13519.3 -36.8704 22531.8
 26 01 2015  09 39  -14.4010 18025.0 -13519.4 -36.8712 22531.7
 26 01 2015  09 40  -14.4003 18025.0 -13519.6 -36.8714 22531.8
 26 01 2015  09 41  -14.4002 18025.5 -13519.5 -36.8705 22532.0
 26 01 2015  09 42  -14.4004 18025.8 -13519.7 -36.8707 22532.4
 26 01 2015  09 43  -14.4001 18025.8 -13520.3 -36.8717 22532.8
 26 01 2015  09 44  -14.3995 18025.3 -13519.9 -36.8718 22532.2
 26 01 2015  09 45  -14.3997 18024.9 -13520.4 -36.8732 22532.1
 26 01 2015  09 46  -14.3997 18024.5 -13520.3 -36.8738 22531.8
 26 01 2015  09 47  -14.3998 18025.4 -13520.6 -36.8730 22532.6
 26 01 2015  09 48  -14.4004 18025.5 -13520.7 -36.8729 22532.8
 26 01 2015  09 49  -14.4012 18025.2 -13520.7 -36.8736 22532.6
 26 01 2015  09 50  -14.4003 18024.6 -13521.1 -36.8751 22532.3
 26 01 2015  09 51  -14.4006 18024.6 -13521.3 -36.8756 22532.4
 26 01 2015  09 52  -14.3989 18024.7 -13521.7 -36.8763 22532.7
 26 01 2015  09 53  -14.3963 18025.4 -13521.5 -36.8748 22533.2
 26 01 2015  09 54  -14.3926 18025.9 -13521.5 -36.8739 22533.6
 26 01 2015  09 55  -14.3901 18025.1 -13521.7 -36.8755 22533.1
 26 01 2015  09 56  -14.3872 18024.8 -13521.5 -36.8758 22532.8
 26 01 2015  09 57  -14.3853 18025.2 -13522.6 -36.8773 22533.8
 26 01 2015  09 58  -14.3832 18025.0 -13522.4 -36.8772 22533.4
 26 01 2015  09 59  -14.3819 18025.6 -13522.2 -36.8759 22533.8
 26 01 2015  10 00  -14.3805 18027.3 -13522.6 -36.8740 22535.4
 26 01 2015  10 01  -14.3791 18028.6 -13523.4 -36.8739 22536.9
 26 01 2015  10 02  -14.3776 18029.2 -13523.0 -36.8721 22537.1
 26 01 2015  10 03  -14.3774 18029.2 -13523.1 -36.8724 22537.2
 26 01 2015  10 04  -14.3763 18029.5 -13523.4 -36.8725 22537.6
 26 01 2015  10 05  -14.3760 18030.4 -13523.4 -36.8711 22538.3
 26 01 2015  10 06  -14.3753 18031.0 -13523.4 -36.8701 22538.8
 26 01 2015  10 07  -14.3740 18030.1 -13523.4 -36.8715 22538.1
 26 01 2015  10 08  -14.3735 18029.0 -13523.3 -36.8730 22537.1
 26 01 2015  10 09  -14.3732 18028.2 -13523.3 -36.8743 22536.5
 26 01 2015  10 10  -14.3734 18027.4 -13523.9 -36.8766 22536.2
 26 01 2015  10 11  -14.3741 18026.6 -13523.7 -36.8774 22535.5
 26 01 2015  10 12  -14.3749 18026.8 -13524.1 -36.8779 22535.9
 26 01 2015  10 13  -14.3758 18026.5 -13524.1 -36.8785 22535.7
 26 01 2015  10 14  -14.3763 18025.5 -13524.2 -36.8801 22534.9
 26 01 2015  10 15  -14.3767 18024.8 -13524.2 -36.8813 22534.4
 26 01 2015  10 16  -14.3756 18024.1 -13524.6 -36.8831 22534.0
 26 01 2015  10 17  -14.3740 18023.7 -13524.8 -36.8841 22533.8
 26 01 2015  10 18  -14.3729 18023.7 -13525.1 -36.8848 22534.0
 26 01 2015  10 19  -14.3718 18024.1 -13525.6 -36.8851 22534.6
 26 01 2015  10 20  -14.3712 18024.7 -13526.0 -36.8850 22535.4
 26 01 2015  10 21  -14.3711 18025.0 -13526.1 -36.8849 22535.6
 26 01 2015  10 22  -14.3706 18025.3 -13526.2 -36.8846 22536.0
 26 01 2015  10 23  -14.3713 18025.3 -13526.6 -36.8852 22536.2
 26 01 2015  10 24  -14.3718 18025.3 -13526.2 -36.8846 22536.0
 26 01 2015  10 25  -14.3718 18025.6 -13527.1 -36.8858 22536.7
 26 01 2015  10 26  -14.3722 18026.1 -13526.7 -36.8843 22536.9
 26 01 2015  10 27  -14.3718 18026.3 -13527.1 -36.8848 22537.3
 26 01 2015  10 28  -14.3710 18026.9 -13527.8 -36.8853 22538.2
 26 01 2015  10 29  -14.3708 18027.6 -13527.8 -36.8843 22538.8
 26 01 2015  10 30  -14.3710 18028.6 -13528.1 -36.8832 22539.8
 26 01 2015  10 31  -14.3703 18028.7 -13528.4 -36.8839 22540.0
 26 01 2015  10 32  -14.3681 18028.3 -13528.2 -36.8840 22539.6
 26 01 2015  10 33  -14.3657 18027.9 -13528.7 -36.8857 22539.5
 26 01 2015  10 34  -14.3650 18028.1 -13529.0 -36.8860 22539.9
 26 01 2015  10 35  -14.3646 18028.0 -13528.8 -36.8856 22539.7
 26 01 2015  10 36  -14.3645 18027.7 -13528.7 -36.8860 22539.4
 26 01 2015  10 37  -14.3650 18027.6 -13529.4 -36.8876 22539.8
 26 01 2015  10 38  -14.3639 18027.2 -13530.0 -36.8895 22539.8
 26 01 2015  10 39  -14.3650 18027.2 -13529.8 -36.8889 22539.6
 26 01 2015  10 40  -14.3652 18027.6 -13529.9 -36.8885 22540.1
 26 01 2015  10 41  -14.3650 18027.7 -13530.0 -36.8885 22540.1
 26 01 2015  10 42  -14.3662 18027.0 -13530.6 -36.8908 22539.9
 26 01 2015  10 43  -14.3682 18025.6 -13530.0 -36.8918 22538.5
 26 01 2015  10 44  -14.3700 18024.1 -13530.4 -36.8948 22537.5
 26 01 2015  10 45  -14.3727 18023.1 -13530.6 -36.8969 22536.8
 26 01 2015  10 46  -14.3738 18022.0 -13530.4 -36.8981 22535.9
 26 01 2015  10 47  -14.3753 18021.6 -13530.7 -36.8992 22535.7
 26 01 2015  10 48  -14.3759 18021.5 -13531.6 -36.9012 22536.1
 26 01 2015  10 49  -14.3765 18021.1 -13531.6 -36.9019 22535.8
 26 01 2015  10 50  -14.3773 18020.1 -13531.7 -36.9036 22535.1
 26 01 2015  10 51  -14.3774 18019.4 -13531.0 -36.9033 22534.1
 26 01 2015  10 52  -14.3804 18018.3 -13532.0 -36.9070 22533.9
 26 01 2015  10 53  -14.3819 18018.3 -13532.6 -36.9082 22534.3
 26 01 2015  10 54  -14.3835 18018.1 -13533.0 -36.9092 22534.3
 26 01 2015  10 55  -14.3844 18017.8 -13533.0 -36.9098 22534.1
 26 01 2015  10 56  -14.3850 18017.4 -13533.3 -36.9110 22533.9
 26 01 2015  10 57  -14.3857 18016.7 -13533.6 -36.9127 22533.5
 26 01 2015  10 58  -14.3867 18016.1 -13533.4 -36.9132 22533.0
 26 01 2015  10 59  -14.3876 18015.8 -13533.9 -36.9148 22533.0
 26 01 2015  11 00  -14.3884 18015.4 -13533.9 -36.9153 22532.7
 26 01 2015  11 01  -14.3894 18014.9 -13533.9 -36.9162 22532.2
 26 01 2015  11 02  -14.3904 18014.2 -13534.2 -36.9177 22531.9
 26 01 2015  11 03  -14.3915 18014.1 -13534.5 -36.9185 22532.0
 26 01 2015  11 04  -14.3926 18014.1 -13534.6 -36.9187 22532.0
 26 01 2015  11 05  -14.3933 18013.9 -13534.9 -36.9196 22532.1
 26 01 2015  11 06  -14.3946 18014.1 -13534.9 -36.9193 22532.2
 26 01 2015  11 07  -14.3958 18014.8 -13535.6 -36.9197 22533.2
 26 01 2015  11 08  -14.3977 18014.9 -13535.5 -36.9193 22533.2
 26 01 2015  11 09  -14.3998 18015.6 -13535.6 -36.9183 22533.8
 26 01 2015  11 10  -14.3992 18016.2 -13535.4 -36.9171 22534.2
 26 01 2015  11 11  -14.4006 18016.5 -13535.4 -36.9167 22534.4
 26 01 2015  11 12  -14.4018 18015.3 -13535.2 -36.9180 22533.3
 26 01 2015  11 13  -14.4029 18014.0 -13535.5 -36.9207 22532.5
 26 01 2015  11 14  -14.4037 18013.2 -13534.6 -36.9200 22531.3
 26 01 2015  11 15  -14.4039 18012.8 -13535.2 -36.9218 22531.3
 26 01 2015  11 16  -14.4036 18012.5 -13535.3 -36.9226 22531.1
 26 01 2015  11 17  -14.4030 18012.4 -13535.7 -36.9235 22531.3
 26 01 2015  11 18  -14.4031 18012.6 -13535.8 -36.9234 22531.5
 26 01 2015  11 19  -14.4038 18012.2 -13535.9 -36.9242 22531.3
 26 01 2015  11 20  -14.4050 18011.7 -13535.8 -36.9247 22530.9
 26 01 2015  11 21  -14.4067 18011.2 -13536.2 -36.9264 22530.7
 26 01 2015  11 22  -14.4092 18010.8 -13536.0 -36.9265 22530.2
 26 01 2015  11 23  -14.4099 18010.7 -13536.4 -36.9275 22530.4
 26 01 2015  11 24  -14.4098 18010.7 -13536.5 -36.9279 22530.5
 26 01 2015  11 25  -14.4107 18010.3 -13536.6 -36.9285 22530.2
 26 01 2015  11 26  -14.4113 18010.4 -13536.6 -36.9284 22530.3
 26 01 2015  11 27  -14.4122 18010.8 -13537.0 -36.9287 22530.9
 26 01 2015  11 28  -14.4126 18011.6 -13537.1 -36.9275 22531.5
 26 01 2015  11 29  -14.4138 18012.5 -13537.3 -36.9266 22532.3
 26 01 2015  11 30  -14.4153 18012.8 -13537.5 -36.9265 22532.7
 26 01 2015  11 31  -14.4170 18013.5 -13537.5 -36.9254 22533.3
 26 01 2015  11 32  -14.4188 18014.9 -13536.8 -36.9219 22534.0
 26 01 2015  11 33  -14.4201 18017.4 -13538.2 -36.9210 22536.9
 26 01 2015  11 34  -14.4209 18018.6 -13537.8 -36.9183 22537.5
 26 01 2015  11 35  -14.4226 18020.1 -13537.3 -36.9151 22538.4
 26 01 2015  11 36  -14.4226 18020.3 -13537.3 -36.9147 22538.7
 26 01 2015  11 37  -14.4224 18021.5 -13536.9 -36.9120 22539.3
 26 01 2015  11 38  -14.4226 18023.6 -13536.6 -36.9082 22540.8
 26 01 2015  11 39  -14.4228 18024.4 -13535.9 -36.9056 22541.0
 26 01 2015  11 40  -14.4236 18025.1 -13536.0 -36.9047 22541.7
 26 01 2015  11 41  -14.4232 18025.6 -13535.9 -36.9038 22542.0
 26 01 2015  11 42  -14.4237 18025.5 -13535.2 -36.9025 22541.6
 26 01 2015  11 43  -14.4235 18024.8 -13535.1 -36.9033 22540.9
 26 01 2015  11 44  -14.4234 18022.5 -13534.7 -36.9060 22538.9
 26 01 2015  11 45  -14.4236 18021.3 -13534.4 -36.9072 22537.7
 26 01 2015  11 46  -14.4223 18019.4 -13534.5 -36.9103 22536.3
 26 01 2015  11 47  -14.4204 18017.9 -13533.7 -36.9109 22534.6
 26 01 2015  11 48  -14.4190 18015.7 -13534.7 -36.9165 22533.4
 26 01 2015  11 49  -14.4163 18014.1 -13534.8 -36.9190 22532.2
 26 01 2015  11 50  -14.4145 18012.6 -13535.4 -36.9225 22531.3
 26 01 2015  11 51  -14.4134 18011.8 -13535.8 -36.9245 22530.9
 26 01 2015  11 52  -14.4141 18011.3 -13536.0 -36.9258 22530.6
 26 01 2015  11 53  -14.4147 18010.9 -13536.1 -36.9267 22530.4
 26 01 2015  11 54  -14.4158 18010.1 -13536.5 -36.9287 22530.0
 26 01 2015  11 55  -14.4166 18010.2 -13536.1 -36.9278 22529.8
 26 01 2015  11 56  -14.4171 18009.4 -13536.7 -36.9303 22529.6
 26 01 2015  11 57  -14.4181 18008.8 -13537.0 -36.9318 22529.2
 26 01 2015  11 58  -14.4186 18007.2 -13537.4 -36.9349 22528.3
 26 01 2015  11 59  -14.4187 18005.9 -13537.0 -36.9362 22526.9
 26 01 2015  12 00  -14.4190 18004.8 -13537.6 -36.9391 22526.4
 26 01 2015  12 01  -14.4190 18003.6 -13537.9 -36.9413 22525.6
 26 01 2015  12 02  -14.4191 18002.8 -13538.2 -36.9433 22525.2
 26 01 2015  12 03  -14.4199 18001.7 -13538.9 -36.9464 22524.8
 26 01 2015  12 04  -14.4201 18001.2 -13538.8 -36.9471 22524.3
 26 01 2015  12 05  -14.4204 18001.7 -13539.4 -36.9474 22525.0
 26 01 2015  12 06  -14.4211 18003.1 -13539.9 -36.9463 22526.5
 26 01 2015  12 07  -14.4229 18004.7 -13539.4 -36.9429 22527.4
 26 01 2015  12 08  -14.4241 18004.7 -13539.5 -36.9430 22527.5
 26 01 2015  12 09  -14.4253 18005.2 -13539.1 -36.9415 22527.7
 26 01 2015  12 10  -14.4263 18004.5 -13539.5 -36.9432 22527.3
 26 01 2015  12 11  -14.4277 18004.2 -13539.8 -36.9443 22527.3
 26 01 2015  12 12  -14.4292 18003.9 -13537.7 -36.9404 22525.8
 26 01 2015  12 13  -14.4300 18003.2 -13539.6 -36.9456 22526.3
 26 01 2015  12 14  -14.4302 18002.4 -13539.7 -36.9470 22525.8
 26 01 2015  12 15  -14.4304 18002.1 -13537.6 -36.9432 22524.3
 26 01 2015  12 16  -14.4299 18001.5 -13537.0 -36.9429 22523.4
 26 01 2015  12 17  -14.4314 18000.6 -13539.4 -36.9492 22524.1
 26 01 2015  12 18  -14.4319 18000.0 -13536.7 -36.9445 22522.0
 26 01 2015  12 19  -14.4314 18000.4 -13539.5 -36.9496 22524.0
 26 01 2015  12 20  -14.4318 17999.8 -13535.6 -36.9427 22521.2
 26 01 2015  12 21  -14.4318 18000.2 -13540.5 -36.9518 22524.5
 26 01 2015  12 22  -14.4374 17999.0 -13530.0 -36.9325 22517.2
 26 01 2015  12 23  -14.4327 18001.0 -13540.8 -36.9513 22525.3
 26 01 2015  12 24  -14.4449 17992.9 -13525.5 -36.9327 22509.6
 26 01 2015  12 25  -14.4359 17992.9 -13522.9 -36.9272 22508.1
 26 01 2015  12 26  -14.4386 18001.0 -13539.7 -36.9491 22524.6
 26 01 2015  12 27  -14.4332 18001.3 -13539.8 -36.9488 22524.9
 26 01 2015  12 28  -14.4244 18027.8 -13537.9 -36.9045 22545.0
 26 01 2015  12 29  -14.4332 18002.5 -13540.1 -36.9475 22526.1
 26 01 2015  12 30  -14.4166 18026.5 -13536.2 -36.9030 22542.9
 26 01 2015  12 31  -14.4287 18010.6 -13534.7 -36.9242 22529.3
 26 01 2015  12 32  -14.4342 18003.2 -13539.2 -36.9448 22526.1
 26 01 2015  12 33  -14.4324 18007.8 -13536.5 -36.9322 22528.1
 26 01 2015  12 34  -14.4305 18006.6 -13537.2 -36.9353 22527.6
 26 01 2015  12 35  -14.4344 18006.0 -13539.8 -36.9417 22528.7
 26 01 2015  12 36  -14.4305 18007.5 -13538.4 -36.9364 22529.1
 26 01 2015  12 37  -14.4279 18006.6 -13538.0 -36.9371 22528.1
 26 01 2015  12 38  -14.4297 18007.9 -13539.4 -36.9379 22530.0
 26 01 2015  12 39  -14.4281 18009.4 -13538.6 -36.9340 22530.7
 26 01 2015  12 40  -14.4304 18009.4 -13538.9 -36.9346 22530.9
 26 01 2015  12 41  -14.4249 18008.8 -13537.2 -36.9320 22529.4
 26 01 2015  12 42  -14.4359 18010.7 -13538.7 -36.9323 22531.8
 26 01 2015  12 43  -14.3754 18007.1 -13534.7 -36.9295 22526.5
 26 01 2015  12 44  -14.4666 18039.8 -13545.3 -36.9011 22559.0
 26 01 2015  12 45  -14.4961 18020.3 -13541.3 -36.9230 22541.0
 26 01 2015  12 46  -14.4589 18042.4 -13514.4 -36.8345 22542.5
 26 01 2015  12 47  -14.4368 18012.3 -13537.0 -36.9263 22532.1
 26 01 2015  12 48  -14.4281 18014.0 -13538.4 -36.9266 22534.2
 26 01 2015  12 49  -14.4296 18013.2 -13538.6 -36.9283 22533.7
 26 01 2015  12 50  -14.4299 18013.4 -13538.1 -36.9269 22533.6
 26 01 2015  12 51  -14.4297 18013.3 -13538.6 -36.9279 22533.8
 26 01 2015  12 52  -14.4288 18013.7 -13539.3 -36.9289 22534.5
 26 01 2015  12 53  -14.4285 18014.2 -13538.4 -36.9262 22534.3
 26 01 2015  12 54  -14.4274 18014.7 -13538.4 -36.9254 22534.8
 26 01 2015  12 55  -14.4269 18015.2 -13538.6 -36.9251 22535.3
 26 01 2015  12 56  -14.4260 18015.7 -13538.5 -36.9241 22535.7
 26 01 2015  12 57  -14.4264 18015.7 -13538.7 -36.9247 22535.8
 26 01 2015  12 58  -14.4266 18016.5 -13537.8 -36.9216 22535.9
 26 01 2015  12 59  -14.4270 18016.2 -13537.4 -36.9212 22535.5
 26 01 2015  13 00  -14.4288 18016.0 -13536.9 -36.9205 22535.0
 26 01 2015  13 01  -14.4299 18015.8 -13536.9 -36.9206 22534.8
 26 01 2015  13 02  -14.4301 18016.0 -13537.0 -36.9207 22535.0
 26 01 2015  13 03  -14.4302 18016.1 -13537.1 -36.9207 22535.1
 26 01 2015  13 04  -14.4309 18016.0 -13536.2 -36.9190 22534.5
 26 01 2015  13 05  -14.4308 18016.3 -13535.1 -36.9163 22534.1
 26 01 2015  13 06  -14.4302 18016.5 -13535.7 -36.9173 22534.6
 26 01 2015  13 07  -14.4300 18016.8 -13535.0 -36.9153 22534.4
 26 01 2015  13 08  -14.4298 18017.1 -13535.3 -36.9155 22534.9
 26 01 2015  13 09  -14.4295 18017.0 -13535.4 -36.9158 22534.8
 26 01 2015  13 10  -14.4291 18017.3 -13534.4 -36.9135 22534.5
 26 01 2015  13 11  -14.4283 18017.8 -13534.7 -36.9131 22535.1
 26 01 2015  13 12  -14.4271 18018.8 -13534.2 -36.9107 22535.5
 26 01 2015  13 13  -14.4256 18019.6 -13533.8 -36.9088 22536.0
 26 01 2015  13 14  -14.4244 18020.0 -13533.8 -36.9080 22536.3
 26 01 2015  13 15  -14.4238 18019.9 -13533.3 -36.9072 22535.9
 26 01 2015  13 16  -14.4230 18020.6 -13533.1 -36.9057 22536.3
 26 01 2015  13 17  -14.4225 18021.2 -13532.6 -36.9039 22536.5
 26 01 2015  13 18  -14.4219 18021.3 -13532.3 -36.9030 22536.4
 26 01 2015  13 19  -14.4214 18021.5 -13532.0 -36.9021 22536.4
 26 01 2015  13 20  -14.4220 18021.5 -13531.8 -36.9016 22536.3
 26 01 2015  13 21  -14.4220 18022.0 -13531.4 -36.9000 22536.5
 26 01 2015  13 22  -14.4223 18021.9 -13531.1 -36.8996 22536.1
 26 01 2015  13 23  -14.4237 18021.8 -13530.4 -36.8983 22535.7
 26 01 2015  13 24  -14.4239 18022.7 -13530.8 -36.8979 22536.6
 26 01 2015  13 25  -14.4233 18023.7 -13531.2 -36.8972 22537.7
 26 01 2015  13 26  -14.4223 18024.4 -13531.3 -36.8963 22538.2
 26 01 2015  13 27  -14.4213 18025.2 -13530.9 -36.8941 22538.7
 26 01 2015  13 28  -14.4213 18025.6 -13530.8 -36.8936 22539.0
 26 01 2015  13 29  -14.4206 18026.3 -13530.9 -36.8925 22539.6
 26 01 2015  13 30  -14.4210 18025.7 -13530.1 -36.8918 22538.6
 26 01 2015  13 31  -14.4226 18024.3 -13529.7 -36.8932 22537.2
 26 01 2015  13 32  -14.4231 18024.1 -13529.7 -36.8935 22537.1
 26 01 2015  13 33  -14.4239 18023.3 -13529.5 -36.8944 22536.4
 26 01 2015  13 34  -14.4258 18021.7 -13529.6 -36.8969 22535.1
 26 01 2015  13 35  -14.4289 18020.1 -13528.7 -36.8974 22533.3
 26 01 2015  13 36  -14.4311 18019.0 -13528.4 -36.8986 22532.2
 26 01 2015  13 37  -14.4316 18019.0 -13529.1 -36.9001 22532.7
 26 01 2015  13 38  -14.4319 18020.1 -13529.5 -36.8992 22533.8
 26 01 2015  13 39  -14.4316 18020.8 -13529.1 -36.8972 22534.1
 26 01 2015  13 40  -14.4309 18021.1 -13529.2 -36.8971 22534.4
 26 01 2015  13 41  -14.4308 18020.0 -13527.8 -36.8958 22532.7
 26 01 2015  13 42  -14.4320 18018.9 -13528.1 -36.8983 22532.0
 26 01 2015  13 43  -14.4341 18017.8 -13528.2 -36.9000 22531.1
 26 01 2015  13 44  -14.4363 18017.1 -13527.9 -36.9004 22530.4
 26 01 2015  13 45  -14.4387 18016.8 -13527.5 -36.9000 22530.0
 26 01 2015  13 46  -14.4397 18015.9 -13527.4 -36.9012 22529.2
 26 01 2015  13 47  -14.4412 18015.1 -13528.3 -36.9044 22529.1
 26 01 2015  13 48  -14.4425 18014.6 -13528.2 -36.9050 22528.6
 26 01 2015  13 49  -14.4435 18014.5 -13527.6 -36.9039 22528.2
 26 01 2015  13 50  -14.4433 18014.6 -13528.0 -36.9045 22528.5
 26 01 2015  13 51  -14.4438 18014.2 -13528.4 -36.9061 22528.4
 26 01 2015  13 52  -14.4451 18013.4 -13527.4 -36.9053 22527.1
 26 01 2015  13 53  -14.4459 18012.9 -13528.1 -36.9074 22527.2
 26 01 2015  13 54  -14.4462 18013.3 -13527.7 -36.9059 22527.2
 26 01 2015  13 55  -14.4439 18015.1 -13529.2 -36.9063 22529.6
 26 01 2015  13 56  -14.4410 18016.9 -13529.8 -36.9046 22531.4
 26 01 2015  13 57  -14.4407 18016.6 -13528.8 -36.9031 22530.5
 26 01 2015  13 58  -14.4402 18016.7 -13528.7 -36.9027 22530.6
 26 01 2015  13 59  -14.4400 18016.5 -13528.6 -36.9027 22530.4
 26 01 2015  14 00  -14.4407 18016.1 -13528.5 -36.9032 22530.0
 26 01 2015  14 01  -14.4413 18016.2 -13528.0 -36.9021 22529.8
 26 01 2015  14 02  -14.4412 18016.1 -13528.1 -36.9024 22529.8
 26 01 2015  14 03  -14.4409 18015.9 -13527.9 -36.9023 22529.5
 26 01 2015  14 04  -14.4411 18015.5 -13527.7 -36.9025 22529.0
 26 01 2015  14 05  -14.4410 18015.1 -13527.7 -36.9030 22528.7
 26 01 2015  14 06  -14.4419 18014.9 -13527.4 -36.9028 22528.4
 26 01 2015  14 07  -14.4419 18015.2 -13528.0 -36.9035 22529.0
 26 01 2015  14 08  -14.4416 18015.7 -13527.6 -36.9020 22529.1
 26 01 2015  14 09  -14.4414 18015.7 -13527.7 -36.9023 22529.2
 26 01 2015  14 10  -14.4399 18016.2 -13527.9 -36.9019 22529.7
 26 01 2015  14 11  -14.4393 18016.6 -13527.8 -36.9011 22530.0
 26 01 2015  14 12  -14.4394 18016.9 -13528.1 -36.9011 22530.4
 26 01 2015  14 13  -14.4365 18018.3 -13528.3 -36.8995 22531.6
 26 01 2015  14 14  -14.4339 18019.0 -13528.0 -36.8977 22532.0
 26 01 2015  14 15  -14.4328 18019.0 -13527.8 -36.8974 22531.8
 26 01 2015  14 16  -14.4320 18018.8 -13528.2 -36.8984 22532.0
 26 01 2015  14 17  -14.4325 18018.4 -13527.4 -36.8976 22531.2
 26 01 2015  14 18  -14.4332 18017.9 -13527.1 -36.8976 22530.6
 26 01 2015  14 19  -14.4331 18017.9 -13527.2 -36.8980 22530.7
 26 01 2015  14 20  -14.4321 18018.3 -13527.2 -36.8972 22530.9
 26 01 2015  14 21  -14.4299 18018.6 -13527.1 -36.8965 22531.1
 26 01 2015  14 22  -14.4298 18018.1 -13526.9 -36.8970 22530.6
 26 01 2015  14 23  -14.4303 18017.2 -13526.6 -36.8976 22529.7
 26 01 2015  14 24  -14.4308 18016.4 -13526.3 -36.8983 22528.9
 26 01 2015  14 25  -14.4315 18015.8 -13526.2 -36.8990 22528.3
 26 01 2015  14 26  -14.4322 18015.3 -13526.0 -36.8993 22527.8
 26 01 2015  14 27  -14.4317 18015.4 -13526.3 -36.8999 22528.1
 26 01 2015  14 28  -14.4312 18015.1 -13526.2 -36.9000 22527.8
 26 01 2015  14 29  -14.4310 18014.6 -13525.6 -36.8995 22527.1
 26 01 2015  14 30  -14.4323 18013.8 -13525.6 -36.9009 22526.4
 26 01 2015  14 31  -14.4327 18013.5 -13525.2 -36.9005 22525.9
 26 01 2015  14 32  -14.4338 18012.7 -13525.5 -36.9023 22525.4
 26 01 2015  14 33  -14.4338 18012.7 -13525.0 -36.9014 22525.2
 26 01 2015  14 34  -14.4341 18012.7 -13525.3 -36.9020 22525.4
 26 01 2015  14 35  -14.4349 18013.0 -13525.0 -36.9009 22525.4
 26 01 2015  14 36  -14.4340 18013.8 -13525.0 -36.8997 22526.1
 26 01 2015  14 37  -14.4327 18014.7 -13525.0 -36.8981 22526.8
 26 01 2015  14 38  -14.4332 18014.8 -13524.9 -36.8978 22526.8
 26 01 2015  14 39  -14.4332 18015.1 -13524.7 -36.8970 22526.9
 26 01 2015  14 40  -14.4338 18014.9 -13524.8 -36.8976 22526.8
 26 01 2015  14 41  -14.4329 18015.4 -13524.4 -36.8960 22527.0
 26 01 2015  14 42  -14.4306 18016.2 -13524.0 -36.8938 22527.4
 26 01 2015  14 43  -14.4296 18016.3 -13524.1 -36.8941 22527.5
 26 01 2015  14 44  -14.4314 18015.8 -13523.1 -36.8927 22526.5
 26 01 2015  14 45  -14.4325 18015.4 -13523.1 -36.8933 22526.2
 26 01 2015  14 46  -14.4327 18015.4 -13522.7 -36.8925 22525.9
 26 01 2015  14 47  -14.4306 18015.9 -13523.1 -36.8925 22526.6
 26 01 2015  14 48  -14.4300 18015.5 -13522.1 -36.8912 22525.6
 26 01 2015  14 49  -14.4285 18015.4 -13522.0 -36.8910 22525.5
 26 01 2015  14 50  -14.4287 18014.8 -13521.9 -36.8916 22525.0
 26 01 2015  14 51  -14.4291 18014.4 -13521.4 -36.8913 22524.4
 26 01 2015  14 52  -14.4284 18014.7 -13521.2 -36.8906 22524.5
 26 01 2015  14 53  -14.4265 18015.3 -13521.4 -36.8899 22525.1
 26 01 2015  14 54  -14.4257 18015.8 -13521.7 -36.8899 22525.7
 26 01 2015  14 55  -14.4240 18016.4 -13521.2 -36.8880 22525.9
 26 01 2015  14 56  -14.4231 18016.4 -13521.2 -36.8879 22525.8
 26 01 2015  14 57  -14.4232 18015.9 -13520.6 -36.8875 22525.1
 26 01 2015  14 58  -14.4224 18016.6 -13520.7 -36.8866 22525.7
 26 01 2015  14 59  -14.4220 18017.2 -13520.9 -36.8861 22526.2
 26 01 2015  15 00  -14.4232 18016.3 -13520.3 -36.8862 22525.2
 26 01 2015  15 01  -14.4233 18016.0 -13520.3 -36.8867 22525.0
 26 01 2015  15 02  -14.4240 18015.3 -13520.1 -36.8873 22524.3
 26 01 2015  15 03  -14.4241 18014.9 -13519.6 -36.8869 22523.7
 26 01 2015  15 04  -14.4229 18015.0 -13519.7 -36.8870 22523.8
 26 01 2015  15 05  -14.4212 18015.1 -13519.6 -36.8868 22523.9
 26 01 2015  15 06  -14.4195 18015.5 -13519.4 -36.8855 22524.1
 26 01 2015  15 07  -14.4183 18016.0 -13519.8 -36.8858 22524.7
 26 01 2015  15 08  -14.4172 18016.6 -13519.7 -36.8847 22525.1
 26 01 2015  15 09  -14.4141 18018.0 -13519.9 -36.8829 22526.4
 26 01 2015  15 10  -14.4097 18019.9 -13520.0 -36.8801 22527.9
 26 01 2015  15 11  -14.4046 18022.2 -13520.1 -36.8768 22529.8
 26 01 2015  15 12  -14.3988 18024.4 -13520.5 -36.8742 22531.8
 26 01 2015  15 13  -14.3936 18026.0 -13520.2 -36.8713 22533.0
 26 01 2015  15 14  -14.3908 18027.0 -13520.1 -36.8695 22533.6
 26 01 2015  15 15  -14.3910 18027.1 -13519.2 -36.8676 22533.2
 26 01 2015  15 16  -14.3932 18026.4 -13518.3 -36.8668 22532.1
 26 01 2015  15 17  -14.3884 18028.4 -13518.8 -36.8647 22534.0
 26 01 2015  15 18  -14.3785 18032.4 -13519.0 -36.8591 22537.3
 26 01 2015  15 19  -14.3706 18036.0 -13518.9 -36.8533 22540.1
 26 01 2015  15 20  -14.3665 18037.6 -13518.7 -36.8506 22541.3
 26 01 2015  15 21  -14.3649 18037.7 -13517.5 -36.8479 22540.7
 26 01 2015  15 22  -14.3640 18037.6 -13517.3 -36.8477 22540.5
 26 01 2015  15 23  -14.3645 18036.7 -13516.4 -36.8473 22539.2
 26 01 2015  15 24  -14.3656 18035.5 -13515.8 -36.8477 22537.9
 26 01 2015  15 25  -14.3693 18033.6 -13515.2 -36.8494 22536.0
 26 01 2015  15 26  -14.3727 18031.5 -13514.2 -36.8508 22533.7
 26 01 2015  15 27  -14.3742 18030.4 -13514.2 -36.8523 22532.9
 26 01 2015  15 28  -14.3747 18030.3 -13513.9 -36.8519 22532.5
 26 01 2015  15 29  -14.3768 18029.9 -13513.9 -36.8524 22532.3
 26 01 2015  15 30  -14.3773 18029.5 -13513.7 -36.8527 22531.8
 26 01 2015  15 31  -14.3785 18029.1 -13513.6 -36.8530 22531.4
 26 01 2015  15 32  -14.3797 18028.5 -13513.6 -36.8539 22531.0
 26 01 2015  15 33  -14.3828 18027.2 -13513.1 -36.8548 22529.6
 26 01 2015  15 34  -14.3850 18026.2 -13513.1 -36.8565 22528.8
 26 01 2015  15 35  -14.3872 18025.8 -13512.6 -36.8560 22528.2
 26 01 2015  15 36  -14.3888 18025.1 -13512.5 -36.8569 22527.6
 26 01 2015  15 37  -14.3893 18025.1 -13512.2 -36.8564 22527.4
 26 01 2015  15 38  -14.3912 18024.7 -13511.9 -36.8563 22526.8
 26 01 2015  15 39  -14.3941 18023.8 -13511.6 -36.8571 22526.0
 26 01 2015  15 40  -14.3979 18022.3 -13511.5 -36.8592 22524.7
 26 01 2015  15 41  -14.3990 18021.6 -13511.5 -36.8602 22524.2
 26 01 2015  15 42  -14.3998 18021.0 -13511.1 -36.8604 22523.5
 26 01 2015  15 43  -14.3998 18020.8 -13511.7 -36.8618 22523.7
 26 01 2015  15 44  -14.4003 18020.2 -13511.6 -36.8625 22523.1
 26 01 2015  15 45  -14.4029 18019.2 -13510.6 -36.8620 22521.7
 26 01 2015  15 46  -14.4041 18018.9 -13510.4 -36.8621 22521.4
 26 01 2015  15 47  -14.4057 18018.8 -13511.0 -36.8637 22521.6
 26 01 2015  15 48  -14.4059 18018.7 -13511.2 -36.8640 22521.7
 26 01 2015  15 49  -14.4052 18018.9 -13510.2 -36.8618 22521.2
 26 01 2015  15 50  -14.4061 18018.6 -13510.2 -36.8622 22521.0
 26 01 2015  15 51  -14.4081 18017.8 -13510.0 -36.8629 22520.2
 26 01 2015  15 52  -14.4069 18018.0 -13510.3 -36.8633 22520.5
 26 01 2015  15 53  -14.4058 18018.2 -13510.5 -36.8635 22520.9
 26 01 2015  15 54  -14.4051 18018.3 -13510.2 -36.8626 22520.8
 26 01 2015  15 55  -14.4058 18017.9 -13509.8 -36.8624 22520.2
 26 01 2015  15 56  -14.4060 18017.5 -13510.4 -36.8642 22520.2
 26 01 2015  15 57  -14.4062 18017.4 -13509.8 -36.8633 22519.8
 26 01 2015  15 58  -14.4054 18017.8 -13509.8 -36.8627 22520.1
 26 01 2015  15 59  -14.4049 18018.0 -13509.8 -36.8624 22520.3
 26 01 2015  16 00  -14.4059 18017.5 -13508.9 -36.8611 22519.4
 26 01 2015  16 01  -14.4060 18017.6 -13509.3 -36.8619 22519.6
 26 01 2015  16 02  -14.4062 18017.6 -13509.1 -36.8615 22519.6
 26 01 2015  16 03  -14.4052 18017.7 -13509.2 -36.8615 22519.6
 26 01 2015  16 04  -14.4042 18016.9 -13509.2 -36.8628 22519.1
 26 01 2015  16 05  -14.4055 18016.0 -13508.3 -36.8622 22517.8
 26 01 2015  16 06  -14.4063 18015.8 -13509.0 -36.8641 22518.0
 26 01 2015  16 07  -14.4085 18015.4 -13507.9 -36.8625 22517.0
 26 01 2015  16 08  -14.4100 18014.6 -13507.8 -36.8634 22516.4
 26 01 2015  16 09  -14.4102 18014.3 -13508.4 -36.8650 22516.4
 26 01 2015  16 10  -14.4094 18014.1 -13507.9 -36.8644 22516.0
 26 01 2015  16 11  -14.4076 18014.0 -13508.4 -36.8656 22516.2
 26 01 2015  16 12  -14.4062 18013.7 -13508.1 -36.8654 22515.8
 26 01 2015  16 13  -14.4063 18012.8 -13507.8 -36.8661 22514.9
 26 01 2015  16 14  -14.4063 18012.6 -13508.1 -36.8672 22514.9
 26 01 2015  16 15  -14.4063 18012.1 -13508.2 -36.8681 22514.6
 26 01 2015  16 16  -14.4064 18011.7 -13507.9 -36.8680 22514.1
 26 01 2015  16 17  -14.4060 18011.4 -13508.5 -36.8697 22514.2
 26 01 2015  16 18  -14.4068 18010.9 -13508.1 -36.8696 22513.5
 26 01 2015  16 19  -14.4067 18010.4 -13508.2 -36.8707 22513.3
 26 01 2015  16 20  -14.4065 18010.1 -13507.8 -36.8702 22512.7
 26 01 2015  16 21  -14.4051 18010.1 -13507.6 -36.8699 22512.7
 26 01 2015  16 22  -14.4042 18010.2 -13507.6 -36.8697 22512.7
 26 01 2015  16 23  -14.4037 18010.1 -13507.7 -36.8700 22512.7
 26 01 2015  16 24  -14.4033 18009.8 -13507.8 -36.8709 22512.5
 26 01 2015  16 25  -14.4024 18009.6 -13507.6 -36.8707 22512.3
 26 01 2015  16 26  -14.4021 18009.4 -13507.4 -36.8705 22512.0
 26 01 2015  16 27  -14.4003 18009.9 -13507.7 -36.8703 22512.6
 26 01 2015  16 28  -14.3985 18010.3 -13507.6 -36.8696 22512.8
 26 01 2015  16 29  -14.3980 18009.9 -13507.9 -36.8708 22512.7
 26 01 2015  16 30  -14.3984 18009.7 -13507.5 -36.8703 22512.3
 26 01 2015  16 31  -14.3955 18010.9 -13507.6 -36.8688 22513.3
 26 01 2015  16 32  -14.3910 18012.2 -13507.9 -36.8672 22514.5
 26 01 2015  16 33  -14.3881 18012.8 -13508.1 -36.8668 22515.1
 26 01 2015  16 34  -14.3878 18012.4 -13507.5 -36.8661 22514.4
 26 01 2015  16 35  -14.3858 18012.7 -13507.4 -36.8654 22514.6
 26 01 2015  16 36  -14.3854 18012.4 -13506.4 -36.8639 22513.7
 26 01 2015  16 37  -14.3860 18011.8 -13507.0 -36.8662 22513.7
 26 01 2015  16 38  -14.3849 18011.8 -13506.2 -36.8645 22513.1
 26 01 2015  16 39  -14.3833 18011.7 -13506.6 -36.8654 22513.3
 26 01 2015  16 40  -14.3822 18011.5 -13506.7 -36.8660 22513.2
 26 01 2015  16 41  -14.3827 18010.7 -13506.2 -36.8661 22512.3
 26 01 2015  16 42  -14.3830 18009.9 -13506.2 -36.8673 22511.6
 26 01 2015  16 43  -14.3843 18008.9 -13505.6 -36.8677 22510.5
 26 01 2015  16 44  -14.3854 18008.1 -13505.6 -36.8688 22509.8
 26 01 2015  16 45  -14.3869 18007.2 -13505.0 -36.8690 22508.7
 26 01 2015  16 46  -14.3883 18006.1 -13504.8 -36.8703 22507.8
 26 01 2015  16 47  -14.3894 18005.2 -13504.7 -36.8714 22507.0
 26 01 2015  16 48  -14.3904 18004.7 -13505.0 -36.8728 22506.7
 26 01 2015  16 49  -14.3904 18004.4 -13505.0 -36.8731 22506.5
 26 01 2015  16 50  -14.3876 18005.4 -13505.2 -36.8721 22507.4
 26 01 2015  16 51  -14.3867 18006.0 -13505.0 -36.8708 22507.8
 26 01 2015  16 52  -14.3859 18006.4 -13505.1 -36.8705 22508.2
 26 01 2015  16 53  -14.3854 18006.3 -13505.4 -36.8713 22508.3
 26 01 2015  16 54  -14.3849 18006.0 -13504.6 -36.8700 22507.5
 26 01 2015  16 55  -14.3827 18005.8 -13504.7 -36.8705 22507.5
 26 01 2015  16 56  -14.3822 18005.2 -13504.7 -36.8714 22506.9
 26 01 2015  16 57  -14.3820 18004.7 -13504.1 -36.8710 22506.2
 26 01 2015  16 58  -14.3815 18004.0 -13503.9 -36.8717 22505.5
 26 01 2015  16 59  -14.3799 18003.9 -13504.1 -36.8721 22505.6
 26 01 2015  17 00  -14.3793 18003.5 -13504.1 -36.8727 22505.3
 26 01 2015  17 01  -14.3784 18003.4 -13504.5 -36.8737 22505.4
 26 01 2015  17 02  -14.3779 18002.9 -13503.9 -36.8733 22504.7
 26 01 2015  17 03  -14.3765 18003.0 -13504.3 -36.8740 22505.0
 26 01 2015  17 04  -14.3738 18003.5 -13504.6 -36.8738 22505.6
 26 01 2015  17 05  -14.3725 18003.1 -13504.1 -36.8733 22504.9
 26 01 2015  17 06  -14.3726 18002.9 -13504.1 -36.8737 22504.7
 26 01 2015  17 07  -14.3715 18003.1 -13504.3 -36.8739 22505.0
 26 01 2015  17 08  -14.3713 18003.0 -13504.1 -36.8736 22504.8
 26 01 2015  17 09  -14.3687 18003.1 -13504.6 -36.8744 22505.3
 26 01 2015  17 10  -14.3656 18003.6 -13504.6 -36.8736 22505.6
 26 01 2015  17 11  -14.3638 18003.6 -13504.5 -36.8733 22505.6
 26 01 2015  17 12  -14.3636 18003.3 -13504.9 -36.8748 22505.6
 26 01 2015  17 13  -14.3632 18002.9 -13504.9 -36.8753 22505.3
 26 01 2015  17 14  -14.3627 18002.6 -13504.2 -36.8744 22504.6
 26 01 2015  17 15  -14.3621 18002.1 -13504.4 -36.8756 22504.3
 26 01 2015  17 16  -14.3633 18001.4 -13504.6 -36.8770 22503.9
 26 01 2015  17 17  -14.3645 18000.8 -13504.3 -36.8774 22503.2
 26 01 2015  17 18  -14.3659 18000.2 -13504.1 -36.8779 22502.6
 26 01 2015  17 19  -14.3657 17999.8 -13503.7 -36.8775 22502.1
 26 01 2015  17 20  -14.3658 17999.4 -13503.8 -36.8786 22501.8
 26 01 2015  17 21  -14.3641 17999.2 -13504.1 -36.8793 22501.8
 26 01 2015  17 22  -14.3633 17999.0 -13504.5 -36.8805 22501.9
 26 01 2015  17 23  -14.3645 17997.6 -13503.9 -36.8814 22500.4
 26 01 2015  17 24  -14.3638 17997.0 -13504.0 -36.8826 22500.0
 26 01 2015  17 25  -14.3612 17996.9 -13504.2 -36.8832 22500.1
 26 01 2015  17 26  -14.3590 17997.1 -13504.6 -36.8835 22500.4
 26 01 2015  17 27  -14.3575 17997.0 -13504.5 -36.8836 22500.3
 26 01 2015  17 28  -14.3558 17996.4 -13504.7 -36.8848 22499.9
 26 01 2015  17 29  -14.3538 17996.5 -13504.8 -36.8849 22500.1
 26 01 2015  17 30  -14.3548 17995.7 -13504.4 -36.8852 22499.2
 26 01 2015  17 31  -14.3554 17995.0 -13504.1 -36.8859 22498.5
 26 01 2015  17 32  -14.3555 17994.7 -13504.6 -36.8873 22498.5
 26 01 2015  17 33  -14.3542 17994.6 -13504.6 -36.8874 22498.4
 26 01 2015  17 34  -14.3539 17993.6 -13505.0 -36.8896 22497.9
 26 01 2015  17 35  -14.3552 17992.9 -13503.9 -36.8886 22496.7
 26 01 2015  17 36  -14.3532 17992.9 -13504.6 -36.8900 22497.1
 26 01 2015  17 37  -14.3521 17992.5 -13504.1 -36.8896 22496.5
 26 01 2015  17 38  -14.3490 17992.2 -13504.4 -36.8906 22496.4
 26 01 2015  17 39  -14.3492 17991.7 -13504.5 -36.8917 22496.0
 26 01 2015  17 40  -14.3503 17991.4 -13504.5 -36.8922 22495.8
 26 01 2015  17 41  -14.3515 17990.8 -13504.9 -36.8939 22495.6
 26 01 2015  17 42  -14.3517 17990.6 -13504.7 -36.8937 22495.2
 26 01 2015  17 43  -14.3506 17990.0 -13504.7 -36.8947 22494.9
 26 01 2015  17 44  -14.3521 17988.6 -13504.4 -36.8962 22493.5
 26 01 2015  17 45  -14.3519 17988.6 -13504.6 -36.8966 22493.7
 26 01 2015  17 46  -14.3501 17989.3 -13504.9 -36.8961 22494.4
 26 01 2015  17 47  -14.3526 17988.7 -13504.8 -36.8969 22493.9
 26 01 2015  17 48  -14.3542 17988.2 -13505.3 -36.8987 22493.7
 26 01 2015  17 49  -14.3549 17987.6 -13504.7 -36.8982 22492.9
 26 01 2015  17 50  -14.3534 17987.4 -13505.0 -36.8992 22492.9
 26 01 2015  17 51  -14.3514 17987.1 -13505.0 -36.8997 22492.7
 26 01 2015  17 52  -14.3520 17986.6 -13505.4 -36.9013 22492.6
 26 01 2015  17 53  -14.3525 17986.3 -13504.9 -36.9007 22492.0
 26 01 2015  17 54  -14.3530 17985.7 -13505.4 -36.9027 22491.8
 26 01 2015  17 55  -14.3561 17984.6 -13504.9 -36.9034 22490.7
 26 01 2015  17 56  -14.3567 17984.5 -13504.8 -36.9032 22490.5
 26 01 2015  17 57  -14.3565 17984.3 -13504.8 -36.9037 22490.3
 26 01 2015  17 58  -14.3578 17983.8 -13505.7 -36.9060 22490.5
 26 01 2015  17 59  -14.3571 17984.1 -13505.5 -36.9054 22490.6
 26 01 2015  18 00  -14.3567 17984.0 -13505.3 -36.9051 22490.3
 26 01 2015  18 01  -14.3591 17982.8 -13505.5 -36.9072 22489.5
 26 01 2015  18 02  -14.3614 17981.9 -13505.3 -36.9083 22488.7
 26 01 2015  18 03  -14.3628 17981.5 -13505.4 -36.9091 22488.4
 26 01 2015  18 04  -14.3618 17982.1 -13505.7 -36.9088 22489.1
 26 01 2015  18 05  -14.3617 17982.2 -13505.6 -36.9084 22489.1
 26 01 2015  18 06  -14.3612 17982.2 -13505.6 -36.9084 22489.1
 26 01 2015  18 07  -14.3606 17982.3 -13505.8 -36.9087 22489.3
 26 01 2015  18 08  -14.3592 17982.8 -13506.8 -36.9100 22490.3
 26 01 2015  18 09  -14.3579 17983.3 -13506.2 -36.9079 22490.4
 26 01 2015  18 10  -14.3570 17983.8 -13505.9 -36.9066 22490.6
 26 01 2015  18 11  -14.3556 17984.6 -13505.7 -36.9050 22491.1
 26 01 2015  18 12  -14.3549 17984.9 -13506.1 -36.9053 22491.6
 26 01 2015  18 13  -14.3550 17985.2 -13505.7 -36.9041 22491.6
 26 01 2015  18 14  -14.3539 17984.9 -13506.0 -36.9052 22491.5
 26 01 2015  18 15  -14.3537 17984.9 -13505.9 -36.9048 22491.5
 26 01 2015  18 16  -14.3535 17985.1 -13505.5 -36.9037 22491.4
 26 01 2015  18 17  -14.3540 17985.4 -13505.8 -36.9040 22491.8
 26 01 2015  18 18  -14.3544 17985.6 -13505.1 -36.9023 22491.5
 26 01 2015  18 19  -14.3537 17985.9 -13505.4 -36.9023 22491.9
 26 01 2015  18 20  -14.3528 17985.8 -13505.8 -36.9032 22492.1
 26 01 2015  18 21  -14.3520 17986.0 -13505.0 -36.9016 22491.8
 26 01 2015  18 22  -14.3532 17985.6 -13504.8 -36.9016 22491.4
 26 01 2015  18 23  -14.3534 17985.5 -13505.0 -36.9022 22491.4
 26 01 2015  18 24  -14.3518 17985.6 -13504.5 -36.9009 22491.2
 26 01 2015  18 25  -14.3527 17985.3 -13504.8 -36.9019 22491.1
 26 01 2015  18 26  -14.3524 17985.0 -13504.8 -36.9025 22490.9
 26 01 2015  18 27  -14.3534 17984.6 -13504.4 -36.9022 22490.3
 26 01 2015  18 28  -14.3553 17983.8 -13503.9 -36.9025 22489.4
 26 01 2015  18 29  -14.3580 17983.0 -13503.5 -36.9030 22488.5
 26 01 2015  18 30  -14.3585 17982.9 -13503.2 -36.9025 22488.2
 26 01 2015  18 31  -14.3570 17983.0 -13503.0 -36.9019 22488.2
 26 01 2015  18 32  -14.3553 17983.0 -13503.4 -36.9028 22488.5
 26 01 2015  18 33  -14.3546 17982.9 -13503.2 -36.9025 22488.2
 26 01 2015  18 34  -14.3543 17982.9 -13504.0 -36.9042 22488.7
 26 01 2015  18 35  -14.3548 17982.5 -13503.8 -36.9043 22488.3
 26 01 2015  18 36  -14.3570 17982.0 -13503.4 -36.9041 22487.7
 26 01 2015  18 37  -14.3586 17981.9 -13503.4 -36.9045 22487.5
 26 01 2015  18 38  -14.3584 17981.6 -13503.6 -36.9053 22487.4
 26 01 2015  18 39  -14.3587 17981.3 -13503.0 -36.9046 22486.9
 26 01 2015  18 40  -14.3598 17981.1 -13503.0 -36.9049 22486.7
 26 01 2015  18 41  -14.3611 17981.3 -13502.9 -36.9044 22486.8
 26 01 2015  18 42  -14.3627 17981.0 -13502.8 -36.9046 22486.4
 26 01 2015  18 43  -14.3645 17980.4 -13502.7 -36.9054 22485.9
 26 01 2015  18 44  -14.3658 17980.0 -13502.8 -36.9061 22485.6
 26 01 2015  18 45  -14.3670 17979.6 -13502.8 -36.9067 22485.4
 26 01 2015  18 46  -14.3678 17979.6 -13502.5 -36.9061 22485.2
 26 01 2015  18 47  -14.3673 17980.2 -13502.0 -36.9041 22485.3
 26 01 2015  18 48  -14.3678 17980.4 -13502.6 -36.9050 22485.9
 26 01 2015  18 49  -14.3679 17980.4 -13502.8 -36.9054 22486.0
 26 01 2015  18 50  -14.3680 17980.4 -13502.1 -36.9041 22485.6
 26 01 2015  18 51  -14.3675 17980.4 -13501.8 -36.9034 22485.4
 26 01 2015  18 52  -14.3675 17980.6 -13502.2 -36.9040 22485.8
 26 01 2015  18 53  -14.3675 17980.9 -13502.1 -36.9033 22485.9
 26 01 2015  18 54  -14.3663 17981.6 -13502.3 -36.9028 22486.7
 26 01 2015  18 55  -14.3660 17981.7 -13502.1 -36.9021 22486.7
 26 01 2015  18 56  -14.3658 17982.0 -13502.1 -36.9017 22486.9
 26 01 2015  18 57  -14.3653 17982.3 -13502.0 -36.9009 22487.0
 26 01 2015  18 58  -14.3653 17982.2 -13501.9 -36.9009 22486.9
 26 01 2015  18 59  -14.3653 17982.0 -13501.7 -36.9008 22486.6
 26 01 2015  19 00  -14.3649 17982.2 -13501.6 -36.9004 22486.7
 26 01 2015  19 01  -14.3643 17982.3 -13501.5 -36.8999 22486.8
 26 01 2015  19 02  -14.3645 17982.1 -13501.7 -36.9006 22486.7
 26 01 2015  19 03  -14.3650 17982.1 -13501.4 -36.9000 22486.6
 26 01 2015  19 04  -14.3647 17982.2 -13501.4 -36.8999 22486.6
 26 01 2015  19 05  -14.3648 17982.1 -13501.2 -36.8997 22486.4
 26 01 2015  19 06  -14.3651 17982.2 -13501.3 -36.8997 22486.5
 26 01 2015  19 07  -14.3640 17982.6 -13500.7 -36.8978 22486.5
 26 01 2015  19 08  -14.3637 17982.9 -13500.9 -36.8979 22486.8
 26 01 2015  19 09  -14.3652 17983.1 -13500.9 -36.8975 22487.0
 26 01 2015  19 10  -14.3658 17983.3 -13500.6 -36.8967 22487.0
 26 01 2015  19 11  -14.3658 17983.4 -13500.4 -36.8960 22487.0
 26 01 2015  19 12  -14.3667 17983.6 -13500.3 -36.8955 22487.0
 26 01 2015  19 13  -14.3675 17984.0 -13500.5 -36.8953 22487.5
 26 01 2015  19 14  -14.3676 17984.4 -13500.1 -36.8939 22487.6
 26 01 2015  19 15  -14.3688 17984.6 -13500.0 -36.8934 22487.7
 26 01 2015  19 16  -14.3697 17984.5 -13499.9 -36.8932 22487.6
 26 01 2015  19 17  -14.3712 17984.2 -13499.8 -36.8935 22487.2
 26 01 2015  19 18  -14.3717 17984.0 -13499.6 -36.8935 22486.9
 26 01 2015  19 19  -14.3719 17983.9 -13499.4 -36.8932 22486.7
 26 01 2015  19 20  -14.3726 17983.7 -13498.8 -36.8922 22486.3
 26 01 2015  19 21  -14.3729 17983.8 -13499.0 -36.8926 22486.4
 26 01 2015  19 22  -14.3731 17984.1 -13499.4 -36.8930 22486.9
 26 01 2015  19 23  -14.3742 17984.2 -13498.8 -36.8916 22486.6
 26 01 2015  19 24  -14.3753 17984.2 -13499.0 -36.8919 22486.7
 26 01 2015  19 25  -14.3762 17984.1 -13499.1 -36.8923 22486.8
 26 01 2015  19 26  -14.3768 17984.4 -13499.2 -36.8920 22487.0
 26 01 2015  19 27  -14.3769 17984.7 -13499.3 -36.8917 22487.4
 26 01 2015  19 28  -14.3775 17984.9 -13499.2 -36.8913 22487.5
 26 01 2015  19 29  -14.3781 17985.2 -13499.3 -36.8911 22487.8
 26 01 2015  19 30  -14.3791 17985.2 -13499.4 -36.8912 22487.8
 26 01 2015  19 31  -14.3795 17985.1 -13499.6 -36.8918 22487.8
 26 01 2015  19 32  -14.3785 17984.9 -13499.6 -36.8920 22487.7
 26 01 2015  19 33  -14.3771 17984.7 -13499.9 -36.8930 22487.7
 26 01 2015  19 34  -14.3759 17984.4 -13500.5 -36.8948 22487.8
 26 01 2015  19 35  -14.3745 17984.1 -13500.5 -36.8950 22487.6
 26 01 2015  19 36  -14.3730 17984.1 -13500.8 -36.8956 22487.8
 26 01 2015  19 37  -14.3717 17984.1 -13501.0 -36.8961 22487.9
 26 01 2015  19 38  -14.3711 17984.2 -13501.5 -36.8971 22488.3
 26 01 2015  19 39  -14.3705 17984.4 -13502.0 -36.8976 22488.7
 26 01 2015  19 40  -14.3700 17984.5 -13502.1 -36.8979 22488.8
 26 01 2015  19 41  -14.3693 17984.4 -13502.3 -36.8982 22488.9
 26 01 2015  19 42  -14.3685 17984.4 -13502.4 -36.8985 22488.9
 26 01 2015  19 43  -14.3678 17984.6 -13501.8 -36.8970 22488.7
 26 01 2015  19 44  -14.3677 17984.6 -13502.7 -36.8989 22489.3
 26 01 2015  19 45  -14.3688 17984.7 -13502.2 -36.8976 22489.1
 26 01 2015  19 46  -14.3697 17984.6 -13501.7 -36.8968 22488.7
 26 01 2015  19 47  -14.3700 17984.6 -13501.7 -36.8968 22488.8
 26 01 2015  19 48  -14.3703 17984.8 -13501.9 -36.8969 22489.0
 26 01 2015  19 49  -14.3699 17984.9 -13501.8 -36.8967 22489.0
 26 01 2015  19 50  -14.3689 17985.2 -13502.0 -36.8965 22489.3
 26 01 2015  19 51  -14.3688 17985.3 -13502.3 -36.8970 22489.6
 26 01 2015  19 52  -14.3697 17985.4 -13501.7 -36.8955 22489.4
 26 01 2015  19 53  -14.3697 17985.5 -13502.1 -36.8962 22489.6
 26 01 2015  19 54  -14.3698 17985.6 -13502.1 -36.8961 22489.7
 26 01 2015  19 55  -14.3703 17985.7 -13501.9 -36.8956 22489.7
 26 01 2015  19 56  -14.3714 17985.8 -13501.8 -36.8951 22489.7
 26 01 2015  19 57  -14.3718 17985.7 -13501.7 -36.8952 22489.5
 26 01 2015  19 58  -14.3720 17985.5 -13501.9 -36.8958 22489.5
 26 01 2015  19 59  -14.3730 17985.1 -13501.5 -36.8956 22489.0
 26 01 2015  20 00  -14.3738 17985.0 -13501.5 -36.8957 22488.9
 26 01 2015  20 01  -14.3749 17984.8 -13501.4 -36.8959 22488.7
 26 01 2015  20 02  -14.3761 17984.8 -13501.3 -36.8958 22488.6
 26 01 2015  20 03  -14.3776 17984.7 -13501.2 -36.8957 22488.5
 26 01 2015  20 04  -14.3793 17984.4 -13501.2 -36.8961 22488.3
 26 01 2015  20 05  -14.3805 17984.2 -13501.3 -36.8966 22488.1
 26 01 2015  20 06  -14.3811 17983.9 -13501.4 -36.8973 22487.9
 26 01 2015  20 07  -14.3813 17983.7 -13501.2 -36.8970 22487.7
 26 01 2015  20 08  -14.3816 17983.7 -13501.6 -36.8979 22487.9
 26 01 2015  20 09  -14.3819 17983.8 -13500.8 -36.8962 22487.5
 26 01 2015  20 10  -14.3813 17983.9 -13501.0 -36.8965 22487.7
 26 01 2015  20 11  -14.3805 17984.4 -13501.2 -36.8963 22488.2
 26 01 2015  20 12  -14.3799 17985.0 -13501.9 -36.8966 22489.2
 26 01 2015  20 13  -14.3794 17985.6 -13502.1 -36.8961 22489.8
 26 01 2015  20 14  -14.3794 17986.1 -13501.6 -36.8944 22489.9
 26 01 2015  20 15  -14.3794 17986.4 -13501.8 -36.8942 22490.2
 26 01 2015  20 16  -14.3790 17986.5 -13501.4 -36.8934 22490.1
 26 01 2015  20 17  -14.3784 17986.3 -13501.0 -36.8929 22489.6
 26 01 2015  20 18  -14.3777 17985.9 -13501.2 -36.8937 22489.4
 26 01 2015  20 19  -14.3775 17985.3 -13501.3 -36.8948 22489.0
 26 01 2015  20 20  -14.3785 17984.3 -13501.4 -36.8967 22488.3
 26 01 2015  20 21  -14.3797 17983.4 -13501.4 -36.8981 22487.6
 26 01 2015  20 22  -14.3796 17983.1 -13501.2 -36.8980 22487.2
 26 01 2015  20 23  -14.3795 17983.3 -13500.8 -36.8969 22487.1
 26 01 2015  20 24  -14.3796 17983.4 -13501.5 -36.8981 22487.6
 26 01 2015  20 25  -14.3791 17983.7 -13501.5 -36.8977 22487.9
 26 01 2015  20 26  -14.3788 17983.8 -13502.2 -36.8990 22488.3
 26 01 2015  20 27  -14.3792 17984.0 -13501.8 -36.8980 22488.3
 26 01 2015  20 28  -14.3798 17984.0 -13502.2 -36.8988 22488.5
 26 01 2015  20 29  -14.3799 17984.2 -13501.9 -36.8979 22488.5
 26 01 2015  20 30  -14.3804 17984.2 -13502.1 -36.8983 22488.6
 26 01 2015  20 31  -14.3809 17984.3 -13501.9 -36.8978 22488.6
 26 01 2015  20 32  -14.3805 17984.6 -13502.4 -36.8981 22489.1
 26 01 2015  20 33  -14.3795 17984.9 -13502.6 -36.8982 22489.5
 26 01 2015  20 34  -14.3786 17985.2 -13502.7 -36.8979 22489.8
 26 01 2015  20 35  -14.3780 17985.3 -13502.9 -36.8981 22490.0
 26 01 2015  20 36  -14.3777 17985.3 -13502.3 -36.8970 22489.6
 26 01 2015  20 37  -14.3778 17985.0 -13502.1 -36.8969 22489.2
 26 01 2015  20 38  -14.3777 17984.6 -13502.4 -36.8982 22489.1
 26 01 2015  20 39  -14.3781 17984.5 -13502.0 -36.8977 22488.8
 26 01 2015  20 40  -14.3781 17984.4 -13502.0 -36.8976 22488.7
 26 01 2015  20 41  -14.3779 17984.4 -13502.0 -36.8977 22488.8
 26 01 2015  20 42  -14.3775 17984.5 -13502.7 -36.8990 22489.3
 26 01 2015  20 43  -14.3770 17984.4 -13503.1 -36.8998 22489.4
 26 01 2015  20 44  -14.3767 17984.4 -13502.8 -36.8993 22489.2
 26 01 2015  20 45  -14.3766 17984.4 -13502.9 -36.8995 22489.3
 26 01 2015  20 46  -14.3759 17984.6 -13503.0 -36.8996 22489.5
 26 01 2015  20 47  -14.3748 17984.7 -13503.4 -36.9001 22489.8
 26 01 2015  20 48  -14.3742 17984.9 -13502.7 -36.8984 22489.5
 26 01 2015  20 49  -14.3730 17985.2 -13503.2 -36.8991 22490.1
 26 01 2015  20 50  -14.3726 17985.2 -13502.9 -36.8984 22489.9
 26 01 2015  20 51  -14.3726 17984.9 -13503.0 -36.8990 22489.8
 26 01 2015  20 52  -14.3727 17984.6 -13503.2 -36.8998 22489.6
 26 01 2015  20 53  -14.3734 17984.3 -13503.0 -36.8999 22489.3
 26 01 2015  20 54  -14.3738 17984.1 -13503.1 -36.9005 22489.1
 26 01 2015  20 55  -14.3743 17983.8 -13503.2 -36.9011 22488.9
 26 01 2015  20 56  -14.3753 17983.5 -13503.0 -36.9012 22488.6
 26 01 2015  20 57  -14.3760 17983.1 -13503.2 -36.9021 22488.4
 26 01 2015  20 58  -14.3763 17983.0 -13503.1 -36.9022 22488.2
 26 01 2015  20 59  -14.3766 17982.8 -13503.4 -36.9029 22488.3
 26 01 2015  21 00  -14.3774 17982.7 -13503.4 -36.9032 22488.1
 26 01 2015  21 01  -14.3781 17982.4 -13503.4 -36.9036 22488.0
 26 01 2015  21 02  -14.3791 17982.1 -13503.4 -36.9042 22487.7
 26 01 2015  21 03  -14.3802 17981.6 -13503.4 -36.9048 22487.3
 26 01 2015  21 04  -14.3812 17981.2 -13503.1 -36.9049 22486.9
 26 01 2015  21 05  -14.3819 17980.9 -13503.3 -36.9058 22486.7
 26 01 2015  21 06  -14.3827 17980.5 -13503.4 -36.9066 22486.5
 26 01 2015  21 07  -14.3836 17980.2 -13503.6 -36.9075 22486.4
 26 01 2015  21 08  -14.3841 17980.1 -13503.6 -36.9075 22486.2
 26 01 2015  21 09  -14.3841 17980.1 -13503.8 -36.9078 22486.4
 26 01 2015  21 10  -14.3838 17980.3 -13503.4 -36.9068 22486.3
 26 01 2015  21 11  -14.3833 17980.5 -13504.1 -36.9080 22486.8
 26 01 2015  21 12  -14.3829 17980.7 -13504.8 -36.9092 22487.5
 26 01 2015  21 13  -14.3821 17981.0 -13504.5 -36.9081 22487.5
 26 01 2015  21 14  -14.3814 17981.2 -13504.6 -36.9081 22487.7
 26 01 2015  21 15  -14.3804 17981.4 -13504.6 -36.9076 22487.9
 26 01 2015  21 16  -14.3799 17981.4 -13504.4 -36.9071 22487.8
 26 01 2015  21 17  -14.3794 17981.5 -13504.8 -36.9079 22488.1
 26 01 2015  21 18  -14.3791 17981.5 -13504.5 -36.9072 22487.9
 26 01 2015  21 19  -14.3792 17981.5 -13504.8 -36.9077 22488.1
 26 01 2015  21 20  -14.3799 17981.5 -13504.6 -36.9074 22487.9
 26 01 2015  21 21  -14.3799 17981.7 -13504.8 -36.9076 22488.2
 26 01 2015  21 22  -14.3804 17981.6 -13504.4 -36.9069 22487.9
 26 01 2015  21 23  -14.3811 17981.4 -13504.6 -36.9076 22487.9
 26 01 2015  21 24  -14.3815 17981.2 -13504.6 -36.9079 22487.7
 26 01 2015  21 25  -14.3823 17980.8 -13504.8 -36.9091 22487.5
 26 01 2015  21 26  -14.3833 17980.3 -13504.7 -36.9095 22487.1
 26 01 2015  21 27  -14.3842 17980.0 -13504.6 -36.9097 22486.8
 26 01 2015  21 28  -14.3845 17979.8 -13504.8 -36.9104 22486.7
 26 01 2015  21 29  -14.3852 17979.5 -13505.0 -36.9114 22486.6
 26 01 2015  21 30  -14.3854 17979.5 -13504.8 -36.9110 22486.5
 26 01 2015  21 31  -14.3856 17979.6 -13505.1 -36.9114 22486.7
 26 01 2015  21 32  -14.3852 17980.0 -13505.3 -36.9111 22487.2
 26 01 2015  21 33  -14.3847 17980.3 -13506.2 -36.9125 22487.9
 26 01 2015  21 34  -14.3848 17980.2 -13505.4 -36.9111 22487.4
 26 01 2015  21 35  -14.3849 17979.7 -13505.2 -36.9115 22486.9
 26 01 2015  21 36  -14.3852 17979.1 -13505.5 -36.9129 22486.5
 26 01 2015  21 37  -14.3858 17978.5 -13505.8 -36.9144 22486.3
 26 01 2015  21 38  -14.3863 17978.1 -13506.0 -36.9154 22486.1
 26 01 2015  21 39  -14.3871 17977.9 -13505.6 -36.9150 22485.7
 26 01 2015  21 40  -14.3873 17977.9 -13505.7 -36.9153 22485.7
 26 01 2015  21 41  -14.3879 17977.9 -13506.1 -36.9160 22485.9
 26 01 2015  21 42  -14.3883 17977.9 -13506.1 -36.9159 22486.0
 26 01 2015  21 43  -14.3889 17977.8 -13506.3 -36.9165 22486.0
 26 01 2015  21 44  -14.3894 17977.6 -13505.9 -36.9161 22485.7
 26 01 2015  21 45  -14.3897 17977.5 -13506.1 -36.9167 22485.7
 26 01 2015  21 46  -14.3901 17977.3 -13506.1 -36.9170 22485.5
 26 01 2015  21 47  -14.3903 17977.1 -13506.1 -36.9173 22485.3
 26 01 2015  21 48  -14.3906 17976.9 -13506.2 -36.9177 22485.3
 26 01 2015  21 49  -14.3910 17976.9 -13506.3 -36.9179 22485.3
 26 01 2015  21 50  -14.3913 17977.0 -13506.4 -36.9181 22485.4
 26 01 2015  21 51  -14.3913 17977.0 -13506.5 -36.9182 22485.5
 26 01 2015  21 52  -14.3910 17977.3 -13506.6 -36.9181 22485.8
 26 01 2015  21 53  -14.3911 17977.3 -13506.7 -36.9181 22485.9
 26 01 2015  21 54  -14.3911 17977.6 -13506.8 -36.9180 22486.2
 26 01 2015  21 55  -14.3914 17977.6 -13506.6 -36.9176 22486.0
 26 01 2015  21 56  -14.3916 17977.5 -13506.8 -36.9180 22486.1
 26 01 2015  21 57  -14.3920 17977.5 -13506.5 -36.9175 22485.9
 26 01 2015  21 58  -14.3928 17977.4 -13506.8 -36.9183 22486.0
 26 01 2015  21 59  -14.3930 17977.3 -13506.7 -36.9182 22485.9
 26 01 2015  22 00  -14.3930 17977.2 -13507.1 -36.9191 22486.0
 26 01 2015  22 01  -14.3936 17976.8 -13507.2 -36.9201 22485.7
 26 01 2015  22 02  -14.3944 17976.5 -13506.7 -36.9194 22485.2
 26 01 2015  22 03  -14.3946 17976.5 -13507.3 -36.9206 22485.5
 26 01 2015  22 04  -14.3949 17976.5 -13506.9 -36.9198 22485.3
 26 01 2015  22 05  -14.3949 17976.5 -13507.0 -36.9201 22485.4
 26 01 2015  22 06  -14.3952 17976.5 -13507.0 -36.9200 22485.4
 26 01 2015  22 07  -14.3950 17976.6 -13507.0 -36.9198 22485.5
 26 01 2015  22 08  -14.3949 17976.8 -13507.0 -36.9195 22485.7
 26 01 2015  22 09  -14.3943 17977.1 -13507.2 -36.9195 22486.0
 26 01 2015  22 10  -14.3939 17977.3 -13507.4 -36.9195 22486.3
 26 01 2015  22 11  -14.3936 17977.4 -13507.4 -36.9195 22486.4
 26 01 2015  22 12  -14.3937 17977.4 -13507.3 -36.9192 22486.4
 26 01 2015  22 13  -14.3940 17977.4 -13507.3 -36.9193 22486.3
 26 01 2015  22 14  -14.3945 17977.5 -13507.3 -36.9191 22486.3
 26 01 2015  22 15  -14.3951 17977.2 -13507.4 -36.9199 22486.2
 26 01 2015  22 16  -14.3953 17977.2 -13507.4 -36.9196 22486.2
 26 01 2015  22 17  -14.3957 17977.4 -13507.6 -36.9198 22486.5
 26 01 2015  22 18  -14.3960 17977.3 -13507.7 -36.9202 22486.5
 26 01 2015  22 19  -14.3962 17977.4 -13507.6 -36.9199 22486.5
 26 01 2015  22 20  -14.3963 17977.3 -13507.5 -36.9198 22486.4
 26 01 2015  22 21  -14.3969 17977.0 -13507.3 -36.9198 22486.0
 26 01 2015  22 22  -14.3977 17976.7 -13507.1 -36.9200 22485.6
 26 01 2015  22 23  -14.3981 17976.4 -13508.0 -36.9223 22485.9
 26 01 2015  22 24  -14.3987 17976.0 -13507.5 -36.9217 22485.3
 26 01 2015  22 25  -14.3993 17975.6 -13507.5 -36.9224 22485.0
 26 01 2015  22 26  -14.3999 17975.5 -13507.3 -36.9221 22484.8
 26 01 2015  22 27  -14.4001 17975.7 -13508.2 -36.9237 22485.5
 26 01 2015  22 28  -14.4003 17975.9 -13508.0 -36.9231 22485.5
 26 01 2015  22 29  -14.4001 17976.1 -13507.8 -36.9223 22485.5
 26 01 2015  22 30  -14.3997 17976.4 -13507.7 -36.9215 22485.8
 26 01 2015  22 31  -14.3989 17976.8 -13508.2 -36.9220 22486.4
 26 01 2015  22 32  -14.3983 17977.2 -13508.3 -36.9216 22486.8
 26 01 2015  22 33  -14.3980 17977.3 -13508.1 -36.9210 22486.7
 26 01 2015  22 34  -14.3981 17977.3 -13508.1 -36.9211 22486.7
 26 01 2015  22 35  -14.3984 17977.3 -13507.9 -36.9207 22486.6
 26 01 2015  22 36  -14.3988 17977.1 -13508.0 -36.9211 22486.5
 26 01 2015  22 37  -14.3991 17977.1 -13508.1 -36.9213 22486.6
 26 01 2015  22 38  -14.3994 17977.0 -13507.9 -36.9211 22486.3
 26 01 2015  22 39  -14.3996 17976.8 -13508.2 -36.9221 22486.4
 26 01 2015  22 40  -14.3997 17976.8 -13508.0 -36.9215 22486.2
 26 01 2015  22 41  -14.3994 17977.3 -13508.0 -36.9210 22486.7
 26 01 2015  22 42  -14.3986 17977.9 -13508.6 -36.9212 22487.5
 26 01 2015  22 43  -14.3977 17978.5 -13508.1 -36.9193 22487.7
 26 01 2015  22 44  -14.3964 17979.0 -13508.6 -36.9194 22488.3
 26 01 2015  22 45  -14.3955 17979.2 -13508.1 -36.9180 22488.2
 26 01 2015  22 46  -14.3945 17979.4 -13508.5 -36.9186 22488.7
 26 01 2015  22 47  -14.3937 17979.5 -13508.2 -36.9178 22488.5
 26 01 2015  22 48  -14.3934 17979.1 -13508.4 -36.9189 22488.3
 26 01 2015  22 49  -14.3937 17978.8 -13508.1 -36.9188 22487.9
 26 01 2015  22 50  -14.3947 17978.5 -13507.9 -36.9188 22487.6
 26 01 2015  22 51  -14.3957 17978.0 -13508.2 -36.9200 22487.3
 26 01 2015  22 52  -14.3969 17977.4 -13508.2 -36.9212 22486.8
 26 01 2015  22 53  -14.3980 17976.7 -13508.0 -36.9217 22486.2
 26 01 2015  22 54  -14.3992 17975.9 -13507.7 -36.9224 22485.3
 26 01 2015  22 55  -14.4004 17975.4 -13508.0 -36.9237 22485.1
 26 01 2015  22 56  -14.4016 17974.8 -13507.9 -36.9245 22484.6
 26 01 2015  22 57  -14.4026 17974.2 -13508.1 -36.9258 22484.2
 26 01 2015  22 58  -14.4032 17973.7 -13508.2 -36.9268 22483.9
 26 01 2015  22 59  -14.4037 17973.4 -13508.4 -36.9275 22483.8
 26 01 2015  23 00  -14.4037 17973.4 -13508.8 -36.9284 22484.0
 26 01 2015  23 01  -14.4038 17973.3 -13508.9 -36.9288 22484.0
 26 01 2015  23 02  -14.4037 17973.3 -13509.2 -36.9295 22484.2
 26 01 2015  23 03  -14.4038 17973.3 -13509.0 -36.9291 22484.0
 26 01 2015  23 04  -14.4037 17973.3 -13509.0 -36.9289 22484.1
 26 01 2015  23 05  -14.4035 17973.3 -13509.2 -36.9294 22484.2
 26 01 2015  23 06  -14.4028 17973.2 -13509.3 -36.9297 22484.2
 26 01 2015  23 07  -14.4017 17973.4 -13510.0 -36.9309 22484.7
 26 01 2015  23 08  -14.4007 17973.7 -13509.9 -36.9301 22484.9
 26 01 2015  23 09  -14.4000 17974.0 -13509.6 -36.9292 22485.0
 26 01 2015  23 10  -14.3991 17974.2 -13509.7 -36.9291 22485.2
 26 01 2015  23 11  -14.3985 17974.6 -13509.6 -36.9282 22485.4
 26 01 2015  23 12  -14.3980 17975.0 -13509.8 -36.9280 22485.9
 26 01 2015  23 13  -14.3973 17975.4 -13510.4 -36.9286 22486.6
 26 01 2015  23 14  -14.3965 17975.7 -13510.5 -36.9284 22486.8
 26 01 2015  23 15  -14.3957 17975.8 -13510.2 -36.9276 22486.8
 26 01 2015  23 16  -14.3947 17975.8 -13510.8 -36.9287 22487.1
 26 01 2015  23 17  -14.3943 17975.8 -13510.1 -36.9275 22486.7
 26 01 2015  23 18  -14.3940 17975.6 -13510.4 -36.9283 22486.7
 26 01 2015  23 19  -14.3940 17975.3 -13510.1 -36.9282 22486.3
 26 01 2015  23 20  -14.3942 17974.9 -13510.4 -36.9294 22486.2
 26 01 2015  23 21  -14.3951 17974.4 -13510.2 -36.9297 22485.6
 26 01 2015  23 22  -14.3961 17974.0 -13510.5 -36.9309 22485.5
 26 01 2015  23 23  -14.3971 17973.6 -13510.8 -36.9322 22485.3
 26 01 2015  23 24  -14.3978 17973.4 -13510.7 -36.9323 22485.2
 26 01 2015  23 25  -14.3985 17973.2 -13511.2 -36.9335 22485.3
 26 01 2015  23 26  -14.3987 17973.0 -13510.7 -36.9330 22484.8
 26 01 2015  23 27  -14.3990 17972.8 -13511.4 -36.9346 22485.1
 26 01 2015  23 28  -14.3994 17972.5 -13511.2 -36.9346 22484.8
 26 01 2015  23 29  -14.4003 17972.1 -13510.9 -36.9347 22484.2
 26 01 2015  23 30  -14.4009 17971.6 -13511.1 -36.9358 22484.0
 26 01 2015  23 31  -14.4019 17971.2 -13511.8 -36.9380 22484.0
 26 01 2015  23 32  -14.4027 17970.7 -13511.9 -36.9389 22483.7
 26 01 2015  23 33  -14.4033 17970.3 -13511.4 -36.9385 22483.1
 26 01 2015  23 34  -14.4035 17969.9 -13511.5 -36.9394 22482.8
 26 01 2015  23 35  -14.4035 17969.5 -13511.6 -36.9400 22482.6
 26 01 2015  23 36  -14.4032 17969.4 -13512.0 -36.9412 22482.7
 26 01 2015  23 37  -14.4025 17969.3 -13512.1 -36.9414 22482.7
 26 01 2015  23 38  -14.4018 17969.3 -13512.2 -36.9416 22482.7
 26 01 2015  23 39  -14.4012 17969.5 -13512.2 -36.9413 22483.0
 26 01 2015  23 40  -14.4009 17969.8 -13512.3 -36.9410 22483.3
 26 01 2015  23 41  -14.4000 17970.3 -13512.6 -36.9409 22483.8
 26 01 2015  23 42  -14.3990 17970.6 -13512.6 -36.9405 22484.1
 26 01 2015  23 43  -14.3981 17971.2 -13512.8 -36.9399 22484.6
 26 01 2015  23 44  -14.3974 17971.6 -13512.6 -36.9389 22484.9
 26 01 2015  23 45  -14.3965 17972.0 -13512.9 -36.9389 22485.3
 26 01 2015  23 46  -14.3962 17972.4 -13513.2 -36.9389 22485.9
 26 01 2015  23 47  -14.3956 17972.9 -13513.1 -36.9380 22486.2
 26 01 2015  23 48  -14.3952 17973.0 -13512.8 -36.9372 22486.1
 26 01 2015  23 49  -14.3949 17972.9 -13512.9 -36.9374 22486.1
 26 01 2015  23 50  -14.3951 17972.8 -13513.1 -36.9380 22486.1
 26 01 2015  23 51  -14.3956 17972.5 -13512.6 -36.9375 22485.6
 26 01 2015  23 52  -14.3960 17972.2 -13513.3 -36.9394 22485.8
 26 01 2015  23 53  -14.3967 17972.0 -13512.8 -36.9388 22485.3
 26 01 2015  23 54  -14.3977 17971.8 -13513.0 -36.9395 22485.3
 26 01 2015  23 55  -14.3985 17971.7 -13513.0 -36.9394 22485.2
 26 01 2015  23 56  -14.3994 17971.9 -13513.3 -36.9398 22485.5
 26 01 2015  23 57  -14.3998 17971.9 -13513.5 -36.9401 22485.6
SAO MARTINHO DA SERRA EMBRACE-06 <026> 1 Min. Reported data

 DD MM YYYY  HH MM   D(Deg)  H(nT)   Z(nT)   I(Deg)   F(nT)

 26 01 2015  00 00  -14.4279 17995.4 -13513.3 -36.9039 22504.3
 26 01 2015  00 01  -14.4272 17995.6 -13513.2 -36.9035 22504.4
 26 01 2015  00 02  -14.4268 17995.3 -13512.9 -36.9032 22504.0
 26 01 2015  00 03  -14.4265 17994.9 -13513.0 -36.9040 22503.7
 26 01 2015  00 04  -14.4264 17994.9 -13513.5 -36.9050 22504.0
 26 01 2015  00 05  -14.4265 17994.6 -13513.3 -36.9051 22503.6
 26 01 2015  00 06  -14.4268 17994.1 -13513.0 -36.9053 22503.1
 26 01 2015  00 07  -14.4273 17993.7 -13513.0 -36.9058 22502.8
 26 01 2015  00 08  -14.4271 17993.6 -13513.2 -36.9064 22502.8
 26 01 2015  00 09  -14.4271 17993.0 -13513.4 -36.9078 22502.5
 26 01 2015  00 10  -14.4276 17992.5 -13513.4 -36.9086 22502.0
 26 01 2015  00 11  -14.4276 17992.2 -13513.3 -36.9088 22501.8
 26 01 2015  00 12  -14.4276 17992.1 -13514.0 -36.9105 22502.1
 26 01 2015  00 13  -14.4276 17992.2 -13513.8 -36.9099 22502.0
 26 01 2015  00 14  -14.4279 17991.8 -13513.7 -36.9103 22501.6
 26 01 2015  00 15  -14.4284 17991.2 -13513.8 -36.9113 22501.2
 26 01 2015  00 16  -14.4292 17990.6 -13513.8 -36.9122 22500.8
 26 01 2015  00 17  -14.4299 17990.1 -13513.4 -36.9122 22500.2
 26 01 2015  00 18  -14.4300 17989.5 -13513.8 -36.9139 22499.9
 26 01 2015  00 19  -14.4297 17989.0 -13513.6 -36.9142 22499.4
 26 01 2015  00 20  -14.4289 17988.7 -13514.3 -36.9163 22499.6
 26 01 2015  00 21  -14.4280 17988.9 -13514.1 -36.9155 22499.6
 26 01 2015  00 22  -14.4273 17989.1 -13514.5 -36.9161 22500.0
 26 01 2015  00 23  -14.4265 17989.0 -13514.4 -36.9160 22499.9
 26 01 2015  00 24  -14.4257 17989.0 -13514.7 -36.9166 22500.0
 26 01 2015  00 25  -14.4250 17988.9 -13514.6 -36.9166 22499.8
 26 01 2015  00 26  -14.4245 17988.8 -13514.7 -36.9170 22499.9
 26 01 2015  00 27  -14.4241 17988.4 -13514.7 -36.9175 22499.6
 26 01 2015  00 28  -14.4239 17988.1 -13515.0 -36.9185 22499.5
 26 01 2015  00 29  -14.4241 17987.5 -13514.8 -36.9190 22498.9
 26 01 2015  00 30  -14.4244 17986.9 -13514.9 -36.9203 22498.4
 26 01 2015  00 31  -14.4248 17986.4 -13514.9 -36.9208 22498.1
 26 01 2015  00 32  -14.4249 17986.1 -13514.9 -36.9215 22497.8
 26 01 2015  00 33  -14.4247 17986.0 -13514.9 -36.9216 22497.7
 26 01 2015  00 34  -14.4245 17985.8 -13515.3 -36.9228 22497.9
 26 01 2015  00 35  -14.4240 17986.0 -13515.5 -36.9229 22498.1
 26 01 2015  00 36  -14.4238 17985.8 -13515.4 -36.9228 22497.9
 26 01 2015  00 37  -14.4231 17985.8 -13515.1 -36.9222 22497.7
 26 01 2015  00 38  -14.4228 17985.6 -13515.0 -36.9223 22497.5
 26 01 2015  00 39  -14.4224 17985.5 -13515.1 -36.9228 22497.5
 26 01 2015  00 40  -14.4219 17985.6 -13515.5 -36.9234 22497.8
 26 01 2015  00 41  -14.4216 17985.7 -13515.3 -36.9229 22497.7
 26 01 2015  00 42  -14.4211 17985.9 -13515.6 -36.9231 22498.1
 26 01 2015  00 43  -14.4208 17986.2 -13515.3 -36.9220 22498.1
 26 01 2015  00 44  -14.4204 17986.6 -13515.8 -36.9223 22498.8
 26 01 2015  00 45  -14.4204 17986.6 -13515.8 -36.9224 22498.8
 26 01 2015  00 46  -14.4205 17986.5 -13515.6 -36.9223 22498.5
 26 01 2015  00 47  -14.4209 17986.5 -13515.4 -36.9219 22498.4
 26 01 2015  00 48  -14.4209 17986.2 -13515.8 -36.9229 22498.4
 26 01 2015  00 49  -14.4212 17986.0 -13515.5 -36.9228 22498.1
 26 01 2015  00 50  -14.4213 17985.9 -13515.8 -36.9235 22498.2
 26 01 2015  00 51  -14.4210 17986.0 -13515.6 -36.9231 22498.2
 26 01 2015  00 52  -14.4210 17986.1 -13515.6 -36.9229 22498.2
 26 01 2015  00 53  -14.4205 17986.3 -13515.7 -36.9227 22498.5
 26 01 2015  00 54  -14.4200 17986.5 -13515.9 -36.9227 22498.8
 26 01 2015  00 55  -14.4199 17986.7 -13516.1 -36.9230 22499.0
 26 01 2015  00 56  -14.4194 17987.0 -13515.9 -36.9221 22499.1
 26 01 2015  00 57  -14.4192 17987.1 -13515.9 -36.9218 22499.2
 26 01 2015  00 58  -14.4187 17987.4 -13516.0 -36.9217 22499.5
 26 01 2015  00 59  -14.4187 17987.4 -13515.9 -36.9214 22499.4
 26 01 2015  01 00  -14.4184 17987.5 -13515.9 -36.9213 22499.6
 26 01 2015  01 01  -14.4182 17987.6 -13515.8 -36.9209 22499.6
 26 01 2015  01 02  -14.4181 17987.4 -13515.9 -36.9216 22499.4
 26 01 2015  01 03  -14.4179 17987.7 -13516.2 -36.9216 22499.9
 26 01 2015  01 04  -14.4176 17987.7 -13515.8 -36.9208 22499.6
 26 01 2015  01 05  -14.4170 17987.8 -13516.3 -36.9216 22500.1
 26 01 2015  01 06  -14.4162 17988.1 -13515.9 -36.9205 22500.0
 26 01 2015  01 07  -14.4157 17988.1 -13515.8 -36.9202 22499.9
 26 01 2015  01 08  -14.4155 17988.1 -13515.5 -36.9196 22499.8
 26 01 2015  01 09  -14.4149 17988.1 -13515.5 -36.9196 22499.9
 26 01 2015  01 10  -14.4145 17988.3 -13516.0 -36.9203 22500.3
 26 01 2015  01 11  -14.4139 17988.7 -13515.8 -36.9194 22500.4
 26 01 2015  01 12  -14.4132 17988.9 -13515.8 -36.9191 22500.6
 26 01 2015  01 13  -14.4125 17989.0 -13516.0 -36.9192 22500.8
 26 01 2015  01 14  -14.4108 17989.6 -13516.1 -36.9185 22501.4
 26 01 2015  01 15  -14.4096 17990.1 -13516.4 -36.9184 22501.9
 26 01 2015  01 16  -14.4094 17990.4 -13516.0 -36.9170 22501.9
 26 01 2015  01 17  -14.4086 17990.8 -13515.9 -36.9164 22502.2
 26 01 2015  01 18  -14.4078 17991.2 -13516.6 -36.9170 22502.9
 26 01 2015  01 19  -14.4068 17991.8 -13515.9 -36.9148 22503.0
 26 01 2015  01 20  -14.4056 17992.5 -13516.0 -36.9137 22503.6
 26 01 2015  01 21  -14.4046 17993.1 -13516.0 -36.9128 22504.1
 26 01 2015  01 22  -14.4040 17993.5 -13516.1 -36.9127 22504.5
 26 01 2015  01 23  -14.4034 17993.9 -13516.0 -36.9117 22504.8
 26 01 2015  01 24  -14.4026 17994.4 -13516.0 -36.9110 22505.1
 26 01 2015  01 25  -14.4019 17994.7 -13516.4 -36.9112 22505.6
 26 01 2015  01 26  -14.4017 17994.8 -13515.8 -36.9099 22505.4
 26 01 2015  01 27  -14.4016 17994.6 -13515.5 -36.9096 22504.9
 26 01 2015  01 28  -14.4016 17994.6 -13515.4 -36.9095 22504.9
 26 01 2015  01 29  -14.4008 17995.2 -13515.5 -36.9087 22505.5
 26 01 2015  01 30  -14.3998 17996.2 -13515.7 -36.9076 22506.3
 26 01 2015  01 31  -14.3988 17996.5 -13515.7 -36.9071 22506.7
 26 01 2015  01 32  -14.3988 17996.7 -13515.4 -36.9063 22506.6
 26 01 2015  01 33  -14.3985 17997.0 -13515.5 -36.9060 22506.9
 26 01 2015  01 34  -14.3978 17997.0 -13515.6 -36.9062 22507.0
 26 01 2015  01 35  -14.3981 17997.0 -13515.2 -36.9055 22506.7
 26 01 2015  01 36  -14.3983 17996.9 -13515.3 -36.9057 22506.7
 26 01 2015  01 37  -14.3979 17997.1 -13515.3 -36.9053 22506.8
 26 01 2015  01 38  -14.3978 17997.3 -13515.3 -36.9051 22507.0
 26 01 2015  01 39  -14.3977 17997.3 -13516.0 -36.9064 22507.4
 26 01 2015  01 40  -14.3977 17997.4 -13515.4 -36.9051 22507.2
 26 01 2015  01 41  -14.3978 17997.5 -13515.2 -36.9047 22507.1
 26 01 2015  01 42  -14.3978 17997.5 -13515.0 -36.9041 22507.0
 26 01 2015  01 43  -14.3982 17997.4 -13515.2 -36.9046 22507.0
 26 01 2015  01 44  -14.3984 17997.5 -13515.3 -36.9046 22507.2
 26 01 2015  01 45  -14.3985 17997.5 -13515.1 -36.9045 22507.0
 26 01 2015  01 46  -14.3984 17997.5 -13515.8 -36.9057 22507.5
 26 01 2015  01 47  -14.3984 17997.6 -13515.4 -36.9047 22507.3
 26 01 2015  01 48  -14.3980 17998.0 -13515.4 -36.9043 22507.6
 26 01 2015  01 49  -14.3979 17998.2 -13515.0 -36.9032 22507.6
 26 01 2015  01 50  -14.3979 17998.2 -13515.2 -36.9035 22507.7
 26 01 2015  01 51  -14.3980 17998.3 -13515.5 -36.9040 22507.9
 26 01 2015  01 52  -14.3981 17997.7 -13515.7 -36.9053 22507.6
 26 01 2015  01 53  -14.3986 17997.6 -13515.7 -36.9054 22507.5
 26 01 2015  01 54  -14.3991 17997.5 -13515.8 -36.9058 22507.5
 26 01 2015  01 55  -14.3994 17997.9 -13516.1 -36.9059 22508.0
 26 01 2015  01 56  -14.3992 17998.2 -13516.0 -36.9053 22508.2
 26 01 2015  01 57  -14.3993 17998.3 -13515.8 -36.9046 22508.1
 26 01 2015  01 58  -14.3997 17998.0 -13515.4 -36.9043 22507.6
 26 01 2015  01 59  -14.3998 17998.2 -13515.9 -36.9048 22508.1
 26 01 2015  02 00  -14.3994 17998.4 -13515.7 -36.9043 22508.1
 26 01 2015  02 01  -14.3991 17998.3 -13515.5 -36.9039 22507.9
 26 01 2015  02 02  -14.3988 17998.2 -13515.6 -36.9044 22507.9
 26 01 2015  02 03  -14.3988 17998.2 -13515.7 -36.9045 22508.0
 26 01 2015  02 04  -14.3990 17998.1 -13515.5 -36.9043 22507.8
 26 01 2015  02 05  -14.3991 17997.7 -13515.5 -36.9048 22507.5
 26 01 2015  02 06  -14.3996 17997.2 -13515.6 -36.9058 22507.1
 26 01 2015  02 07  -14.4003 17996.9 -13515.3 -36.9058 22506.7
 26 01 2015  02 08  -14.4006 17996.6 -13515.2 -36.9060 22506.4
 26 01 2015  02 09  -14.4005 17996.3 -13515.6 -36.9071 22506.4
 26 01 2015  02 10  -14.4004 17996.2 -13516.1 -36.9083 22506.6
 26 01 2015  02 11  -14.4004 17996.2 -13515.8 -36.9077 22506.5
 26 01 2015  02 12  -14.4004 17996.5 -13516.2 -36.9081 22506.9
 26 01 2015  02 13  -14.4006 17996.8 -13515.8 -36.9070 22506.9
 26 01 2015  02 14  -14.4009 17997.0 -13516.4 -36.9079 22507.4
 26 01 2015  02 15  -14.4011 17997.1 -13516.1 -36.9070 22507.4
 26 01 2015  02 16  -14.4016 17997.0 -13516.0 -36.9069 22507.2
 26 01 2015  02 17  -14.4019 17997.1 -13516.3 -36.9075 22507.5
 26 01 2015  02 18  -14.4023 17997.3 -13516.1 -36.9067 22507.4
 26 01 2015  02 19  -14.4024 17997.2 -13516.6 -36.9079 22507.8
 26 01 2015  02 20  -14.4031 17997.0 -13515.7 -36.9063 22507.0
 26 01 2015  02 21  -14.4034 17996.7 -13516.2 -36.9079 22507.1
 26 01 2015  02 22  -14.4040 17996.5 -13516.2 -36.9082 22506.9
 26 01 2015  02 23  -14.4042 17996.8 -13516.0 -36.9072 22507.1
 26 01 2015  02 24  -14.4047 17997.1 -13516.2 -36.9072 22507.5
 26 01 2015  02 25  -14.4053 17997.1 -13516.6 -36.9081 22507.7
 26 01 2015  02 26  -14.4056 17997.4 -13516.0 -36.9064 22507.6
 26 01 2015  02 27  -14.4052 17997.7 -13516.7 -36.9073 22508.2
 26 01 2015  02 28  -14.4049 17997.8 -13516.5 -36.9067 22508.2
 26 01 2015  02 29  -14.4057 17997.8 -13516.5 -36.9068 22508.1
 26 01 2015  02 30  -14.4060 17997.9 -13516.6 -36.9069 22508.3
 26 01 2015  02 31  -14.4069 17997.7 -13516.2 -36.9063 22507.9
 26 01 2015  02 32  -14.4072 17997.7 -13516.4 -36.9067 22508.0
 26 01 2015  02 33  -14.4073 17997.7 -13516.5 -36.9070 22508.1
 26 01 2015  02 34  -14.4079 17997.3 -13516.5 -36.9076 22507.7
 26 01 2015  02 35  -14.4083 17997.0 -13516.5 -36.9081 22507.5
 26 01 2015  02 36  -14.4083 17996.7 -13516.5 -36.9084 22507.2
 26 01 2015  02 37  -14.4085 17996.7 -13516.5 -36.9085 22507.2
 26 01 2015  02 38  -14.4086 17996.5 -13516.4 -36.9086 22507.0
 26 01 2015  02 39  -14.4088 17996.2 -13516.4 -36.9091 22506.8
 26 01 2015  02 40  -14.4083 17996.2 -13516.6 -36.9096 22506.9
 26 01 2015  02 41  -14.4087 17995.6 -13516.5 -36.9102 22506.4
 26 01 2015  02 42  -14.4086 17995.4 -13516.5 -36.9104 22506.2
 26 01 2015  02 43  -14.4093 17995.0 -13516.6 -36.9112 22506.0
 26 01 2015  02 44  -14.4099 17994.9 -13516.8 -36.9118 22506.0
 26 01 2015  02 45  -14.4106 17994.6 -13516.5 -36.9117 22505.6
 26 01 2015  02 46  -14.4113 17994.3 -13516.6 -36.9123 22505.4
 26 01 2015  02 47  -14.4119 17994.1 -13516.9 -36.9133 22505.4
 26 01 2015  02 48  -14.4120 17994.0 -13517.0 -36.9137 22505.4
 26 01 2015  02 49  -14.4126 17993.7 -13516.4 -36.9130 22504.8
 26 01 2015  02 50  -14.4134 17993.4 -13517.1 -36.9147 22504.9
 26 01 2015  02 51  -14.4136 17993.0 -13516.6 -36.9143 22504.3
 26 01 2015  02 52  -14.4140 17992.3 -13516.9 -36.9159 22504.0
 26 01 2015  02 53  -14.4139 17992.2 -13516.8 -36.9159 22503.9
 26 01 2015  02 54  -14.4138 17992.0 -13516.9 -36.9165 22503.8
 26 01 2015  02 55  -14.4139 17991.7 -13517.0 -36.9172 22503.6
 26 01 2015  02 56  -14.4146 17991.2 -13517.1 -36.9182 22503.2
 26 01 2015  02 57  -14.4149 17991.0 -13517.1 -36.9184 22503.1
 26 01 2015  02 58  -14.4154 17990.7 -13517.8 -36.9204 22503.2
 26 01 2015  02 59  -14.4158 17990.3 -13517.0 -36.9193 22502.5
 26 01 2015  03 00  -14.4158 17990.2 -13517.3 -36.9201 22502.5
 26 01 2015  03 01  -14.4167 17989.6 -13517.5 -36.9214 22502.2
 26 01 2015  03 02  -14.4181 17989.1 -13517.0 -36.9212 22501.5
 26 01 2015  03 03  -14.4184 17989.1 -13517.4 -36.9220 22501.7
 26 01 2015  03 04  -14.4192 17988.5 -13517.8 -36.9236 22501.5
 26 01 2015  03 05  -14.4205 17987.6 -13517.4 -36.9243 22500.6
 26 01 2015  03 06  -14.4219 17986.9 -13517.3 -36.9252 22499.9
 26 01 2015  03 07  -14.4237 17985.8 -13517.2 -36.9265 22498.9
 26 01 2015  03 08  -14.4245 17985.3 -13517.6 -36.9281 22498.8
 26 01 2015  03 09  -14.4255 17984.7 -13517.6 -36.9290 22498.3
 26 01 2015  03 10  -14.4256 17984.6 -13517.9 -36.9296 22498.4
 26 01 2015  03 11  -14.4259 17984.4 -13517.7 -36.9298 22498.1
 26 01 2015  03 12  -14.4258 17984.1 -13518.5 -36.9318 22498.4
 26 01 2015  03 13  -14.4266 17983.2 -13517.9 -36.9321 22497.3
 26 01 2015  03 14  -14.4273 17982.7 -13517.9 -36.9326 22496.9
 26 01 2015  03 15  -14.4280 17982.3 -13517.9 -36.9333 22496.6
 26 01 2015  03 16  -14.4289 17982.1 -13518.0 -36.9338 22496.5
 26 01 2015  03 17  -14.4297 17981.9 -13518.4 -36.9350 22496.6
 26 01 2015  03 18  -14.4307 17981.7 -13518.1 -36.9347 22496.2
 26 01 2015  03 19  -14.4312 17981.5 -13518.5 -36.9359 22496.3
 26 01 2015  03 20  -14.4318 17981.1 -13518.2 -36.9358 22495.8
 26 01 2015  03 21  -14.4317 17981.2 -13518.3 -36.9358 22495.9
 26 01 2015  03 22  -14.4317 17981.5 -13517.9 -36.9346 22495.9
 26 01 2015  03 23  -14.4314 17981.9 -13518.6 -36.9354 22496.6
 26 01 2015  03 24  -14.4312 17982.1 -13519.2 -36.9363 22497.3
 26 01 2015  03 25  -14.4308 17982.5 -13518.4 -36.9341 22497.1
 26 01 2015  03 26  -14.4304 17983.2 -13518.6 -36.9335 22497.7
 26 01 2015  03 27  -14.4303 17983.8 -13519.3 -36.9339 22498.7
 26 01 2015  03 28  -14.4308 17984.1 -13518.9 -36.9327 22498.7
 26 01 2015  03 29  -14.4313 17984.2 -13518.9 -36.9325 22498.7
 26 01 2015  03 30  -14.4324 17984.3 -13518.9 -36.9324 22498.8
 26 01 2015  03 31  -14.4336 17984.3 -13518.5 -36.9315 22498.6
 26 01 2015  03 32  -14.4344 17984.2 -13518.3 -36.9311 22498.3
 26 01 2015  03 33  -14.4348 17984.2 -13518.9 -36.9325 22498.7
 26 01 2015  03 34  -14.4355 17984.4 -13518.4 -36.9311 22498.5
 26 01 2015  03 35  -14.4359 17984.4 -13518.5 -36.9314 22498.6
 26 01 2015  03 36  -14.4360 17984.4 -13518.8 -36.9320 22498.8
 26 01 2015  03 37  -14.4362 17984.3 -13518.0 -36.9304 22498.2
 26 01 2015  03 38  -14.4357 17984.4 -13518.4 -36.9311 22498.6
 26 01 2015  03 39  -14.4352 17984.6 -13518.5 -36.9310 22498.8
 26 01 2015  03 40  -14.4352 17985.0 -13518.4 -36.9302 22499.1
 26 01 2015  03 41  -14.4349 17985.3 -13518.6 -36.9302 22499.4
 26 01 2015  03 42  -14.4345 17985.6 -13518.4 -36.9292 22499.6
 26 01 2015  03 43  -14.4341 17986.0 -13518.5 -36.9289 22499.9
 26 01 2015  03 44  -14.4337 17986.3 -13518.3 -36.9281 22500.1
 26 01 2015  03 45  -14.4339 17986.6 -13518.5 -36.9280 22500.4
 26 01 2015  03 46  -14.4341 17987.1 -13518.4 -36.9270 22500.8
 26 01 2015  03 47  -14.4340 17987.5 -13518.4 -36.9263 22501.1
 26 01 2015  03 48  -14.4338 17988.1 -13518.4 -36.9254 22501.5
 26 01 2015  03 49  -14.4340 17988.4 -13518.4 -36.9249 22501.8
 26 01 2015  03 50  -14.4342 17988.8 -13518.1 -36.9239 22501.9
 26 01 2015  03 51  -14.4344 17989.2 -13518.3 -36.9236 22502.4
 26 01 2015  03 52  -14.4341 17989.8 -13518.1 -36.9223 22502.8
 26 01 2015  03 53  -14.4335 17990.4 -13518.1 -36.9214 22503.2
 26 01 2015  03 54  -14.4329 17990.9 -13518.1 -36.9206 22503.6
 26 01 2015  03 55  -14.4326 17991.3 -13517.8 -36.9195 22503.7
 26 01 2015  03 56  -14.4323 17991.7 -13517.9 -36.9189 22504.1
 26 01 2015  03 57  -14.4320 17992.0 -13517.9 -36.9185 22504.4
 26 01 2015  03 58  -14.4318 17992.3 -13518.2 -36.9185 22504.7
 26 01 2015  03 59  -14.4316 17992.6 -13517.7 -36.9171 22504.7
 26 01 2015  04 00  -14.4313 17992.5 -13517.9 -36.9178 22504.7
 26 01 2015  04 01  -14.4310 17992.6 -13517.6 -36.9168 22504.7
 26 01 2015  04 02  -14.4307 17992.9 -13517.7 -36.9167 22504.9
 26 01 2015  04 03  -14.4301 17993.3 -13518.1 -36.9169 22505.5
 26 01 2015  04 04  -14.4297 17993.6 -13517.3 -36.9149 22505.3
 26 01 2015  04 05  -14.4291 17993.9 -13517.6 -36.9150 22505.6
 26 01 2015  04 06  -14.4281 17994.3 -13517.2 -36.9136 22505.8
 26 01 2015  04 07  -14.4275 17994.3 -13517.2 -36.9135 22505.8
 26 01 2015  04 08  -14.4268 17994.6 -13517.1 -36.9130 22505.9
 26 01 2015  04 09  -14.4264 17994.9 -13517.1 -36.9126 22506.2
 26 01 2015  04 10  -14.4266 17994.8 -13516.8 -36.9119 22505.9
 26 01 2015  04 11  -14.4270 17994.8 -13516.8 -36.9121 22505.9
 26 01 2015  04 12  -14.4270 17995.0 -13516.9 -36.9118 22506.1
 26 01 2015  04 13  -14.4271 17995.0 -13516.9 -36.9119 22506.2
 26 01 2015  04 14  -14.4270 17995.1 -13516.6 -36.9111 22506.1
 26 01 2015  04 15  -14.4268 17995.3 -13516.7 -36.9110 22506.2
 26 01 2015  04 16  -14.4266 17995.5 -13516.5 -36.9104 22506.3
 26 01 2015  04 17  -14.4270 17995.6 -13516.4 -36.9100 22506.3
 26 01 2015  04 18  -14.4273 17995.6 -13517.2 -36.9115 22506.8
 26 01 2015  04 19  -14.4280 17995.6 -13517.1 -36.9113 22506.8
 26 01 2015  04 20  -14.4290 17995.4 -13517.1 -36.9118 22506.6
 26 01 2015  04 21  -14.4298 17995.3 -13517.0 -36.9116 22506.5
 26 01 2015  04 22  -14.4305 17995.2 -13517.1 -36.9119 22506.5
 26 01 2015  04 23  -14.4313 17995.1 -13516.4 -36.9107 22505.9
 26 01 2015  04 24  -14.4317 17995.1 -13517.2 -36.9123 22506.4
 26 01 2015  04 25  -14.4324 17995.0 -13516.8 -36.9118 22506.0
 26 01 2015  04 26  -14.4330 17994.9 -13516.9 -36.9122 22506.1
 26 01 2015  04 27  -14.4336 17994.8 -13517.2 -36.9127 22506.1
 26 01 2015  04 28  -14.4345 17994.7 -13516.5 -36.9116 22505.6
 26 01 2015  04 29  -14.4354 17994.5 -13516.2 -36.9113 22505.3
 26 01 2015  04 30  -14.4359 17994.3 -13516.8 -36.9127 22505.5
 26 01 2015  04 31  -14.4367 17994.2 -13516.9 -36.9132 22505.5
 26 01 2015  04 32  -14.4379 17993.8 -13516.4 -36.9127 22504.9
 26 01 2015  04 33  -14.4390 17993.4 -13516.8 -36.9141 22504.8
 26 01 2015  04 34  -14.4403 17993.1 -13516.2 -36.9133 22504.2
 26 01 2015  04 35  -14.4414 17992.9 -13516.5 -36.9143 22504.3
 26 01 2015  04 36  -14.4424 17992.9 -13516.4 -36.9140 22504.2
 26 01 2015  04 37  -14.4431 17993.2 -13516.5 -36.9137 22504.5
 26 01 2015  04 38  -14.4439 17993.7 -13516.5 -36.9132 22504.9
 26 01 2015  04 39  -14.4443 17994.4 -13517.1 -36.9132 22505.8
 26 01 2015  04 40  -14.4445 17995.2 -13517.3 -36.9124 22506.5
 26 01 2015  04 41  -14.4450 17995.6 -13516.7 -36.9105 22506.5
 26 01 2015  04 42  -14.4452 17996.2 -13517.0 -36.9102 22507.1
 26 01 2015  04 43  -14.4456 17996.4 -13517.1 -36.9101 22507.4
 26 01 2015  04 44  -14.4460 17996.6 -13517.0 -36.9096 22507.4
 26 01 2015  04 45  -14.4465 17996.9 -13516.8 -36.9088 22507.6
 26 01 2015  04 46  -14.4463 17997.4 -13517.1 -36.9085 22508.2
 26 01 2015  04 47  -14.4465 17997.6 -13517.2 -36.9084 22508.4
 26 01 2015  04 48  -14.4465 17997.8 -13516.7 -36.9070 22508.3
 26 01 2015  04 49  -14.4465 17998.0 -13516.8 -36.9070 22508.4
 26 01 2015  04 50  -14.4464 17998.0 -13516.5 -36.9064 22508.3
 26 01 2015  04 51  -14.4462 17997.6 -13516.1 -36.9063 22507.7
 26 01 2015  04 52  -14.4459 17997.1 -13515.9 -36.9067 22507.3
 26 01 2015  04 53  -14.4453 17996.8 -13516.2 -36.9078 22507.2
 26 01 2015  04 54  -14.4447 17996.6 -13516.0 -36.9077 22506.9
 26 01 2015  04 55  -14.4441 17996.5 -13516.1 -36.9080 22506.9
 26 01 2015  04 56  -14.4436 17996.4 -13516.2 -36.9083 22506.8
 26 01 2015  04 57  -14.4429 17996.5 -13516.2 -36.9081 22507.0
 26 01 2015  04 58  -14.4425 17996.6 -13516.3 -36.9081 22507.1
 26 01 2015  04 59  -14.4422 17996.8 -13516.0 -36.9073 22507.0
 26 01 2015  05 00  -14.4418 17997.0 -13516.6 -36.9082 22507.5
 26 01 2015  05 01  -14.4416 17997.2 -13516.5 -36.9077 22507.6
 26 01 2015  05 02  -14.4413 17997.2 -13516.3 -36.9073 22507.6
 26 01 2015  05 03  -14.4410 17997.4 -13516.1 -36.9066 22507.5
 26 01 2015  05 04  -14.4404 17997.5 -13516.0 -36.9062 22507.6
 26 01 2015  05 05  -14.4397 17997.6 -13515.9 -36.9058 22507.6
 26 01 2015  05 06  -14.4389 17997.9 -13516.2 -36.9061 22508.1
 26 01 2015  05 07  -14.4381 17997.9 -13516.5 -36.9065 22508.2
 26 01 2015  05 08  -14.4377 17998.2 -13515.9 -36.9050 22508.1
 26 01 2015  05 09  -14.4374 17998.3 -13516.4 -36.9057 22508.5
 26 01 2015  05 10  -14.4372 17998.3 -13516.2 -36.9054 22508.3
 26 01 2015  05 11  -14.4369 17998.0 -13516.1 -36.9057 22508.1
 26 01 2015  05 12  -14.4365 17997.8 -13516.0 -36.9057 22507.8
 26 01 2015  05 13  -14.4361 17997.5 -13516.3 -36.9068 22507.7
 26 01 2015  05 14  -14.4358 17997.3 -13516.2 -36.9069 22507.5
 26 01 2015  05 15  -14.4356 17997.3 -13515.9 -36.9064 22507.4
 26 01 2015  05 16  -14.4355 17997.5 -13515.8 -36.9059 22507.5
 26 01 2015  05 17  -14.4355 17997.8 -13516.0 -36.9058 22507.8
 26 01 2015  05 18  -14.4357 17998.2 -13516.0 -36.9052 22508.2
 26 01 2015  05 19  -14.4359 17998.8 -13516.5 -36.9053 22508.9
 26 01 2015  05 20  -14.4361 17999.4 -13516.1 -36.9036 22509.1
 26 01 2015  05 21  -14.4362 17999.8 -13516.5 -36.9037 22509.8
 26 01 2015  05 22  -14.4360 18000.5 -13516.8 -36.9032 22510.5
 26 01 2015  05 23  -14.4360 18001.1 -13516.3 -36.9013 22510.7
 26 01 2015  05 24  -14.4354 18002.5 -13516.4 -36.8993 22511.9
 26 01 2015  05 25  -14.4349 18003.6 -13516.6 -36.8980 22512.9
 26 01 2015  05 26  -14.4345 18004.7 -13516.6 -36.8964 22513.7
 26 01 2015  05 27  -14.4345 18005.3 -13516.6 -36.8954 22514.2
 26 01 2015  05 28  -14.4344 18006.0 -13516.6 -36.8946 22514.8
 26 01 2015  05 29  -14.4346 18006.5 -13516.0 -36.8925 22514.8
 26 01 2015  05 30  -14.4345 18007.0 -13516.3 -36.8923 22515.3
 26 01 2015  05 31  -14.4348 18006.9 -13516.4 -36.8926 22515.3
 26 01 2015  05 32  -14.4350 18006.7 -13516.0 -36.8920 22515.0
 26 01 2015  05 33  -14.4352 18006.5 -13515.6 -36.8916 22514.6
 26 01 2015  05 34  -14.4350 18006.4 -13515.8 -36.8921 22514.6
 26 01 2015  05 35  -14.4349 18006.5 -13515.5 -36.8915 22514.5
 26 01 2015  05 36  -14.4347 18006.5 -13515.5 -36.8915 22514.5
 26 01 2015  05 37  -14.4345 18006.4 -13515.8 -36.8922 22514.6
 26 01 2015  05 38  -14.4346 18006.4 -13515.5 -36.8917 22514.4
 26 01 2015  05 39  -14.4346 18006.3 -13515.3 -36.8912 22514.2
 26 01 2015  05 40  -14.4345 18006.6 -13515.6 -36.8916 22514.6
 26 01 2015  05 41  -14.4346 18006.8 -13515.5 -36.8910 22514.7
 26 01 2015  05 42  -14.4346 18007.0 -13515.4 -36.8904 22514.8
 26 01 2015  05 43  -14.4346 18007.1 -13515.2 -36.8900 22514.8
 26 01 2015  05 44  -14.4347 18007.0 -13515.5 -36.8907 22514.9
 26 01 2015  05 45  -14.4349 18006.7 -13515.5 -36.8913 22514.6
 26 01 2015  05 46  -14.4349 18006.6 -13515.3 -36.8910 22514.5
 26 01 2015  05 47  -14.4349 18006.4 -13515.4 -36.8914 22514.3
 26 01 2015  05 48  -14.4350 18005.8 -13515.3 -36.8920 22513.8
 26 01 2015  05 49  -14.4349 18005.6 -13515.5 -36.8929 22513.8
 26 01 2015  05 50  -14.4351 18005.3 -13514.7 -36.8916 22513.1
 26 01 2015  05 51  -14.4353 18005.2 -13514.9 -36.8922 22513.1
 26 01 2015  05 52  -14.4351 18005.9 -13514.8 -36.8910 22513.7
 26 01 2015  05 53  -14.4347 18006.7 -13515.9 -36.8919 22514.9
 26 01 2015  05 54  -14.4349 18007.0 -13515.2 -36.8901 22514.7
 26 01 2015  05 55  -14.4351 18006.9 -13515.4 -36.8907 22514.7
 26 01 2015  05 56  -14.4350 18007.1 -13515.2 -36.8900 22514.8
 26 01 2015  05 57  -14.4348 18007.3 -13515.6 -36.8905 22515.2
 26 01 2015  05 58  -14.4348 18007.6 -13514.8 -36.8884 22514.9
 26 01 2015  05 59  -14.4349 18007.7 -13515.0 -36.8887 22515.2
 26 01 2015  06 00  -14.4350 18007.8 -13515.1 -36.8888 22515.3
 26 01 2015  06 01  -14.4350 18008.0 -13515.2 -36.8886 22515.5
 26 01 2015  06 02  -14.4354 18008.2 -13514.7 -36.8872 22515.4
 26 01 2015  06 03  -14.4355 18008.4 -13515.1 -36.8877 22515.7
 26 01 2015  06 04  -14.4357 18008.5 -13515.0 -36.8874 22515.8
 26 01 2015  06 05  -14.4356 18008.5 -13515.4 -36.8881 22516.1
 26 01 2015  06 06  -14.4357 18008.4 -13514.9 -36.8872 22515.7
 26 01 2015  06 07  -14.4357 18008.4 -13514.9 -36.8873 22515.7
 26 01 2015  06 08  -14.4357 18008.3 -13514.8 -36.8873 22515.5
 26 01 2015  06 09  -14.4357 18008.2 -13514.8 -36.8874 22515.5
 26 01 2015  06 10  -14.4351 18008.4 -13515.2 -36.8880 22515.9
 26 01 2015  06 11  -14.4350 18008.3 -13514.6 -36.8868 22515.4
 26 01 2015  06 12  -14.4349 18008.4 -13514.8 -36.8871 22515.6
 26 01 2015  06 13  -14.4345 18008.5 -13515.3 -36.8880 22516.0
 26 01 2015  06 14  -14.4341 18008.7 -13515.1 -36.8872 22516.0
 26 01 2015  06 15  -14.4337 18009.1 -13514.3 -36.8851 22515.9
 26 01 2015  06 16  -14.4332 18009.7 -13515.0 -36.8856 22516.8
 26 01 2015  06 17  -14.4327 18010.4 -13515.3 -36.8851 22517.5
 26 01 2015  06 18  -14.4324 18010.9 -13515.3 -36.8842 22517.9
 26 01 2015  06 19  -14.4323 18011.3 -13515.5 -36.8841 22518.4
 26 01 2015  06 20  -14.4320 18011.5 -13515.7 -36.8842 22518.6
 26 01 2015  06 21  -14.4319 18011.6 -13515.5 -36.8837 22518.6
 26 01 2015  06 22  -14.4315 18011.6 -13515.3 -36.8833 22518.5
 26 01 2015  06 23  -14.4313 18011.5 -13514.8 -36.8825 22518.1
 26 01 2015  06 24  -14.4309 18011.3 -13514.7 -36.8825 22517.8
 26 01 2015  06 25  -14.4305 18011.0 -13515.3 -36.8841 22517.9
 26 01 2015  06 26  -14.4302 18010.8 -13514.9 -36.8836 22517.5
 26 01 2015  06 27  -14.4300 18010.8 -13514.7 -36.8832 22517.4
 26 01 2015  06 28  -14.4299 18010.7 -13514.6 -36.8833 22517.3
 26 01 2015  06 29  -14.4299 18010.7 -13514.6 -36.8833 22517.3
 26 01 2015  06 30  -14.4298 18010.7 -13514.9 -36.8837 22517.5
 26 01 2015  06 31  -14.4296 18010.8 -13515.0 -36.8837 22517.6
 26 01 2015  06 32  -14.4292 18010.9 -13515.2 -36.8842 22517.9
 26 01 2015  06 33  -14.4290 18011.1 -13515.3 -36.8839 22518.1
 26 01 2015  06 34  -14.4287 18011.7 -13514.9 -36.8823 22518.3
 26 01 2015  06 35  -14.4285 18012.2 -13514.8 -36.8813 22518.6
 26 01 2015  06 36  -14.4280 18012.7 -13515.1 -36.8812 22519.3
 26 01 2015  06 37  -14.4279 18013.0 -13514.8 -36.8802 22519.3
 26 01 2015  06 38  -14.4277 18013.1 -13515.1 -36.8805 22519.5
 26 01 2015  06 39  -14.4277 18013.2 -13514.4 -36.8791 22519.2
 26 01 2015  06 40  -14.4272 18013.4 -13514.6 -36.8791 22519.5
 26 01 2015  06 41  -14.4268 18013.4 -13514.8 -36.8794 22519.6
 26 01 2015  06 42  -14.4265 18013.3 -13515.1 -36.8802 22519.7
 26 01 2015  06 43  -14.4261 18013.4 -13514.7 -36.8792 22519.5
 26 01 2015  06 44  -14.4260 18013.1 -13514.6 -36.8795 22519.2
 26 01 2015  06 45  -14.4262 18012.2 -13514.5 -36.8807 22518.4
 26 01 2015  06 46  -14.4262 18011.4 -13514.2 -36.8813 22517.6
 26 01 2015  06 47  -14.4260 18011.0 -13514.4 -36.8823 22517.4
 26 01 2015  06 48  -14.4260 18010.5 -13514.5 -36.8833 22517.1
 26 01 2015  06 49  -14.4258 18010.1 -13514.4 -36.8836 22516.7
 26 01 2015  06 50  -14.4253 18010.0 -13514.7 -36.8844 22516.8
 26 01 2015  06 51  -14.4249 18010.1 -13514.6 -36.8842 22516.9
 26 01 2015  06 52  -14.4244 18010.6 -13514.6 -36.8834 22517.2
 26 01 2015  06 53  -14.4235 18011.0 -13514.9 -36.8833 22517.7
 26 01 2015  06 54  -14.4230 18011.4 -13514.8 -36.8827 22518.0
 26 01 2015  06 55  -14.4223 18011.9 -13514.8 -36.8818 22518.3
 26 01 2015  06 56  -14.4216 18012.3 -13515.0 -36.8815 22518.8
 26 01 2015  06 57  -14.4209 18012.9 -13515.1 -36.8809 22519.3
 26 01 2015  06 58  -14.4200 18013.2 -13514.9 -36.8800 22519.5
 26 01 2015  06 59  -14.4188 18013.5 -13515.0 -36.8798 22519.8
 26 01 2015  07 00  -14.4172 18013.9 -13515.1 -36.8793 22520.1
 26 01 2015  07 01  -14.4153 18014.0 -13515.1 -36.8792 22520.2
 26 01 2015  07 02  -14.4139 18014.2 -13514.8 -36.8784 22520.2
 26 01 2015  07 03  -14.4127 18014.5 -13514.9 -36.8781 22520.5
 26 01 2015  07 04  -14.4120 18014.4 -13514.9 -36.8782 22520.5
 26 01 2015  07 05  -14.4112 18014.4 -13514.7 -36.8779 22520.3
 26 01 2015  07 06  -14.4103 18014.5 -13514.8 -36.8777 22520.5
 26 01 2015  07 07  -14.4094 18014.7 -13514.9 -36.8778 22520.7
 26 01 2015  07 08  -14.4093 18014.4 -13514.7 -36.8777 22520.3
 26 01 2015  07 09  -14.4093 18014.4 -13514.8 -36.8779 22520.4
 26 01 2015  07 10  -14.4091 18014.3 -13514.8 -36.8781 22520.3
 26 01 2015  07 11  -14.4088 18014.6 -13514.8 -36.8776 22520.5
 26 01 2015  07 12  -14.4087 18014.8 -13514.9 -36.8776 22520.8
 26 01 2015  07 13  -14.4087 18015.1 -13514.9 -36.8770 22521.0
 26 01 2015  07 14  -14.4084 18015.3 -13515.0 -36.8770 22521.2
 26 01 2015  07 15  -14.4086 18015.5 -13514.9 -36.8765 22521.3
 26 01 2015  07 16  -14.4089 18015.8 -13514.9 -36.8761 22521.6
 26 01 2015  07 17  -14.4092 18016.0 -13515.0 -36.8759 22521.9
 26 01 2015  07 18  -14.4094 18016.1 -13514.9 -36.8755 22521.8
 26 01 2015  07 19  -14.4097 18016.1 -13514.7 -36.8752 22521.7
 26 01 2015  07 20  -14.4099 18015.9 -13514.9 -36.8760 22521.6
 26 01 2015  07 21  -14.4102 18015.6 -13514.7 -36.8760 22521.3
 26 01 2015  07 22  -14.4108 18015.5 -13514.8 -36.8763 22521.3
 26 01 2015  07 23  -14.4110 18015.6 -13514.8 -36.8760 22521.4
 26 01 2015  07 24  -14.4114 18015.7 -13514.9 -36.8762 22521.5
 26 01 2015  07 25  -14.4120 18015.7 -13514.6 -36.8757 22521.3
 26 01 2015  07 26  -14.4115 18015.8 -13515.1 -36.8765 22521.7
 26 01 2015  07 27  -14.4113 18015.8 -13515.3 -36.8767 22521.8
 26 01 2015  07 28  -14.4109 18015.8 -13514.9 -36.8761 22521.6
 26 01 2015  07 29  -14.4112 18015.8 -13514.8 -36.8757 22521.5
 26 01 2015  07 30  -14.4111 18016.1 -13514.5 -36.8748 22521.6
 26 01 2015  07 31  -14.4105 18016.1 -13515.3 -36.8763 22522.1
 26 01 2015  07 32  -14.4106 18016.0 -13514.3 -36.8745 22521.4
 26 01 2015  07 33  -14.4103 18015.7 -13515.0 -36.8763 22521.6
 26 01 2015  07 34  -14.4100 18015.6 -13514.6 -36.8757 22521.2
 26 01 2015  07 35  -14.4100 18015.3 -13514.8 -36.8765 22521.1
 26 01 2015  07 36  -14.4100 18014.9 -13514.8 -36.8772 22520.8
 26 01 2015  07 37  -14.4098 18014.7 -13515.2 -36.8784 22520.9
 26 01 2015  07 38  -14.4101 18014.4 -13514.9 -36.8782 22520.4
 26 01 2015  07 39  -14.4103 18014.1 -13515.1 -36.8791 22520.3
 26 01 2015  07 40  -14.4104 18014.1 -13515.1 -36.8791 22520.3
 26 01 2015  07 41  -14.4107 18014.1 -13514.9 -36.8786 22520.2
 26 01 2015  07 42  -14.4109 18013.8 -13515.6 -36.8806 22520.4
 26 01 2015  07 43  -14.4112 18014.1 -13515.2 -36.8791 22520.4
 26 01 2015  07 44  -14.4109 18014.1 -13515.8 -36.8804 22520.8
 26 01 2015  07 45  -14.4111 18014.3 -13515.2 -36.8789 22520.6
 26 01 2015  07 46  -14.4111 18014.0 -13515.5 -36.8800 22520.5
 26 01 2015  07 47  -14.4116 18014.1 -13515.6 -36.8801 22520.6
 26 01 2015  07 48  -14.4115 18014.1 -13515.5 -36.8798 22520.6
 26 01 2015  07 49  -14.4119 18014.2 -13515.5 -36.8797 22520.6
 26 01 2015  07 50  -14.4118 18014.3 -13515.6 -36.8797 22520.8
 26 01 2015  07 51  -14.4125 18014.3 -13515.5 -36.8795 22520.7
 26 01 2015  07 52  -14.4124 18014.5 -13515.5 -36.8793 22520.9
 26 01 2015  07 53  -14.4122 18014.7 -13516.0 -36.8800 22521.3
 26 01 2015  07 54  -14.4121 18014.6 -13515.2 -36.8785 22520.8
 26 01 2015  07 55  -14.4115 18014.8 -13515.6 -36.8789 22521.2
 26 01 2015  07 56  -14.4121 18014.8 -13515.8 -36.8794 22521.3
 26 01 2015  07 57  -14.4121 18014.6 -13515.5 -36.8791 22521.0
 26 01 2015  07 58  -14.4124 18014.4 -13515.0 -36.8784 22520.5
 26 01 2015  07 59  -14.4124 18014.3 -13515.4 -36.8793 22520.6
 26 01 2015  08 00  -14.4123 18014.1 -13515.3 -36.8795 22520.5
 26 01 2015  08 01  -14.4130 18014.1 -13515.7 -36.8802 22520.7
 26 01 2015  08 02  -14.4128 18014.2 -13515.4 -36.8794 22520.6
 26 01 2015  08 03  -14.4133 18014.1 -13515.7 -36.8802 22520.7
 26 01 2015  08 04  -14.4137 18013.9 -13515.6 -36.8803 22520.4
 26 01 2015  08 05  -14.4139 18013.7 -13515.6 -36.8807 22520.3
 26 01 2015  08 06  -14.4147 18013.5 -13515.7 -36.8812 22520.2
 26 01 2015  08 07  -14.4144 18013.5 -13515.9 -36.8816 22520.4
 26 01 2015  08 08  -14.4139 18013.4 -13515.6 -36.8812 22520.1
 26 01 2015  08 09  -14.4141 18013.2 -13515.9 -36.8820 22520.1
 26 01 2015  08 10  -14.4142 18013.0 -13515.8 -36.8821 22519.9
 26 01 2015  08 11  -14.4144 18013.0 -13516.0 -36.8825 22520.0
 26 01 2015  08 12  -14.4142 18012.9 -13516.0 -36.8826 22519.9
 26 01 2015  08 13  -14.4141 18012.9 -13516.1 -36.8830 22520.0
 26 01 2015  08 14  -14.4136 18012.7 -13516.1 -36.8832 22519.9
 26 01 2015  08 15  -14.4134 18012.4 -13516.0 -36.8834 22519.5
 26 01 2015  08 16  -14.4130 18012.6 -13516.3 -36.8836 22519.9
 26 01 2015  08 17  -14.4135 18012.4 -13516.3 -36.8840 22519.7
 26 01 2015  08 18  -14.4139 18012.5 -13516.6 -36.8845 22519.9
 26 01 2015  08 19  -14.4148 18012.6 -13516.2 -36.8835 22519.8
 26 01 2015  08 20  -14.4157 18012.5 -13516.1 -36.8835 22519.6
 26 01 2015  08 21  -14.4164 18012.3 -13516.6 -36.8849 22519.8
 26 01 2015  08 22  -14.4170 18012.1 -13516.8 -36.8857 22519.8
 26 01 2015  08 23  -14.4179 18011.9 -13516.3 -36.8847 22519.3
 26 01 2015  08 24  -14.4186 18011.9 -13516.7 -36.8857 22519.5
 26 01 2015  08 25  -14.4191 18011.9 -13516.4 -36.8851 22519.3
 26 01 2015  08 26  -14.4197 18011.7 -13516.4 -36.8854 22519.2
 26 01 2015  08 27  -14.4203 18012.0 -13516.5 -36.8851 22519.6
 26 01 2015  08 28  -14.4199 18012.6 -13517.2 -36.8855 22520.4
 26 01 2015  08 29  -14.4192 18012.5 -13516.6 -36.8845 22519.9
 26 01 2015  08 30  -14.4187 18012.7 -13516.5 -36.8841 22520.1
 26 01 2015  08 31  -14.4179 18012.8 -13517.1 -36.8850 22520.5
 26 01 2015  08 32  -14.4151 18013.3 -13517.1 -36.8843 22520.9
 26 01 2015  08 33  -14.4155 18013.0 -13517.0 -36.8847 22520.6
 26 01 2015  08 34  -14.4151 18015.5 -13517.4 -36.8816 22522.8
 26 01 2015  08 35  -14.4130 18023.5 -13519.1 -36.8729 22530.2
 26 01 2015  08 36  -14.4106 18027.7 -13519.4 -36.8670 22533.7
 26 01 2015  08 37  -14.4110 18029.2 -13518.8 -36.8635 22534.7
 26 01 2015  08 38  -14.4094 18029.8 -13517.9 -36.8608 22534.6
 26 01 2015  08 39  -14.4083 18029.4 -13517.5 -36.8604 22534.0
 26 01 2015  08 40  -14.4067 18028.9 -13517.0 -36.8604 22533.3
 26 01 2015  08 41  -14.4051 18028.1 -13516.9 -36.8612 22532.6
 26 01 2015  08 42  -14.4048 18027.3 -13516.8 -36.8624 22531.9
 26 01 2015  08 43  -14.4033 18026.6 -13516.9 -36.8636 22531.4
 26 01 2015  08 44  -14.4027 18026.5 -13515.9 -36.8617 22530.8
 26 01 2015  08 45  -14.4012 18026.9 -13516.5 -36.8624 22531.5
 26 01 2015  08 46  -14.4010 18027.6 -13517.2 -36.8627 22532.4
 26 01 2015  08 47  -14.4014 18027.6 -13517.1 -36.8624 22532.4
 26 01 2015  08 48  -14.4013 18028.4 -13516.6 -36.8603 22532.7
 26 01 2015  08 49  -14.4024 18027.5 -13516.8 -36.8622 22532.1
 26 01 2015  08 50  -14.4017 18025.7 -13516.6 -36.8644 22530.5
 26 01 2015  08 51  -14.4014 18025.3 -13516.5 -36.8648 22530.1
 26 01 2015  08 52  -14.4039 18024.8 -13517.1 -36.8667 22530.1
 26 01 2015  08 53  -14.4030 18026.6 -13517.5 -36.8649 22531.8
 26 01 2015  08 54  -14.4038 18027.2 -13516.9 -36.8628 22531.9
 26 01 2015  08 55  -14.4041 18026.4 -13517.1 -36.8644 22531.3
 26 01 2015  08 56  -14.4039 18025.9 -13516.7 -36.8644 22530.8
 26 01 2015  08 57  -14.4043 18024.9 -13516.8 -36.8660 22530.1
 26 01 2015  08 58  -14.4045 18024.9 -13516.4 -36.8651 22529.8
 26 01 2015  08 59  -14.4030 18025.2 -13517.4 -36.8667 22530.6
 26 01 2015  09 00  -14.4006 18026.1 -13516.9 -36.8645 22531.0
 26 01 2015  09 01  -14.4023 18025.9 -13517.3 -36.8654 22531.1
 26 01 2015  09 02  -14.4022 18025.8 -13517.8 -36.8666 22531.3
 26 01 2015  09 03  -14.4030 18024.9 -13517.3 -36.8670 22530.3
 26 01 2015  09 04  -14.4040 18025.3 -13517.4 -36.8666 22530.7
 26 01 2015  09 05  -14.4059 18027.7 -13517.9 -36.8640 22532.9
 26 01 2015  09 06  -14.4072 18029.5 -13518.3 -36.8620 22534.6
 26 01 2015  09 07  -14.4092 18030.2 -13518.6 -36.8616 22535.3
 26 01 2015  09 08  -14.4102 18030.2 -13518.1 -36.8606 22535.0
 26 01 2015  09 09  -14.4109 18029.9 -13518.0 -36.8608 22534.7
 26 01 2015  09 10  -14.4112 18030.3 -13518.2 -36.8605 22535.2
 26 01 2015  09 11  -14.4120 18030.9 -13518.2 -36.8597 22535.6
 26 01 2015  09 12  -14.4124 18031.7 -13518.4 -36.8590 22536.4
 26 01 2015  09 13  -14.4130 18032.0 -13518.4 -36.8585 22536.6
 26 01 2015  09 14  -14.4126 18032.0 -13518.3 -36.8581 22536.6
 26 01 2015  09 15  -14.4103 18032.3 -13518.2 -36.8576 22536.8
 26 01 2015  09 16  -14.4084 18031.6 -13518.1 -36.8583 22536.2
 26 01 2015  09 17  -14.4067 18030.8 -13517.9 -36.8592 22535.3
 26 01 2015  09 18  -14.4057 18030.5 -13517.8 -36.8594 22535.0
 26 01 2015  09 19  -14.4049 18030.4 -13517.8 -36.8597 22535.1
 26 01 2015  09 20  -14.4046 18030.2 -13517.7 -36.8597 22534.8
 26 01 2015  09 21  -14.4039 18029.6 -13517.7 -36.8607 22534.4
 26 01 2015  09 22  -14.4034 18029.0 -13517.6 -36.8614 22533.7
 26 01 2015  09 23  -14.4038 18028.7 -13517.7 -36.8622 22533.6
 26 01 2015  09 24  -14.4037 18028.4 -13518.1 -36.8633 22533.5
 26 01 2015  09 25  -14.4050 18028.4 -13518.0 -36.8631 22533.5
 26 01 2015  09 26  -14.4043 18028.1 -13518.1 -36.8637 22533.3
 26 01 2015  09 27  -14.4043 18027.4 -13518.1 -36.8648 22532.8
 26 01 2015  09 28  -14.4058 18028.4 -13518.4 -36.8640 22533.8
 26 01 2015  09 29  -14.4065 18027.7 -13518.6 -36.8653 22533.3
 26 01 2015  09 30  -14.4056 18026.2 -13518.0 -36.8665 22531.8
 26 01 2015  09 31  -14.4050 18025.7 -13518.2 -36.8677 22531.4
 26 01 2015  09 32  -14.4051 18025.8 -13518.6 -36.8683 22531.8
 26 01 2015  09 33  -14.4052 18026.2 -13518.7 -36.8678 22532.2
 26 01 2015  09 34  -14.4041 18026.4 -13518.9 -36.8679 22532.5
 26 01 2015  09 35  -14.4040 18026.2 -13519.0 -36.8684 22532.4
 26 01 2015  09 36  -14.4037 18025.9 -13519.0 -36.8688 22532.1
 26 01 2015  09 37  -14.4033 18025.7 -13519.2 -36.8696 22532.0
 26 01 2015  09 38  -14.4027 18025.3 -13519.3 -36.8704 22531.8
 26 01 2015  09 39  -14.4010 18025.0 -13519.4 -36.8712 22531.7
 26 01 2015  09 40  -14.4003 18025.0 -13519.6 -36.8714 22531.8
 26 01 2015  09 41  -14.4002 18025.5 -13519.5 -36.8705 22532.0
 26 01 2015  09 42  -14.4004 18025.8 -13519.7 -36.8707 22532.4
 26 01 2015  09 43  -14.4001 18025.8 -13520.3 -36.8717 22532.8
 26 01 2015  09 44  -14.3995 18025.3 -13519.9 -36.8718 22532.2
 26 01 2015  09 45  -14.3997 18024.9 -13520.4 -36.8732 22532.1
 26 01 2015  09 46  -14.3997 18024.5 -13520.3 -36.8738 22531.8
 26 01 2015  09 47  -14.3998 18025.4 -13520.6 -36.8730 22532.6
 26 01 2015  09 48  -14.4004 18025.5 -13520.7 -36.8729 22532.8
 26 01 2015  09 49  -14.4012 18025.2 -13520.7 -36.8736 22532.6
 26 01 2015  09 50  -14.4003 18024.6 -13521.1 -36.8751 22532.3
 26 01 2015  09 51  -14.4006 18024.6 -13521.3 -36.8756 22532.4
 26 01 2015  09 52  -14.3989 18024.7 -13521.7 -36.8763 22532.7
 26 01 2015  09 53  -14.3963 18025.4 -13521.5 -36.8748 22533.2
 26 01 2015  09 54  -14.3926 18025.9 -13521.5 -36.8739 22533.6
 26 01 2015  09 55  -14.3901 18025.1 -13521.7 -36.8755 22533.1
 26 01 2015  09 56  -14.3872 18024.8 -13521.5 -36.8758 22532.8
 26 01 2015  09 57  -14.3853 18025.2 -13522.6 -36.8773 22533.8
 26 01 2015  09 58  -14.3832 18025.0 -13522.4 -36.8772 22533.4
 26 01 2015  09 59  -14.3819 18025.6 -13522.2 -36.8759 22533.8
 26 01 2015  10 00  -14.3805 18027.3 -13522.6 -36.8740 22535.4
 26 01 2015  10 01  -14.3791 18028.6 -13523.4 -36.8739 22536.9
 26 01 2015  10 02  -14.3776 18029.2 -13523.0 -36.8721 22537.1
 26 01 2015  10 03  -14.3774 18029.2 -13523.1 -36.8724 22537.2
 26 01 2015  10 04  -14.3763 18029.5 -13523.4 -36.8725 22537.6
 26 01 2015  10 05  -14.3760 18030.4 -13523.4 -36.8711 22538.3
 26 01 2015  10 06  -14.3753 18031.0 -13523.4 -36.8701 22538.8
 26 01 2015  10 07  -14.3740 18030.1 -13523.4 -36.8715 22538.1
 26 01 2015  10 08  -14.3735 18029.0 -13523.3 -36.8730 22537.1
 26 01 2015  10 09  -14.3732 18028.2 -13523.3 -36.8743 22536.5
 26 01 2015  10 10  -14.3734 18027.4 -13523.9 -36.8766 22536.2
 26 01 2015  10 11  -14.3741 18026.6 -13523.7 -36.8774 22535.5
 26 01 2015  10 12  -14.3749 18026.8 -13524.1 -36.8779 22535.9
 26 01 2015  10 13  -14.3758 18026.5 -13524.1 -36.8785 22535.7
 26 01 2015  10 14  -14.3763 18025.5 -13524.2 -36.8801 22534.9
 26 01 2015  10 15  -14.3767 18024.8 -13524.2 -36.8813 22534.4
 26 01 2015  10 16  -14.3756 18024.1 -13524.6 -36.8831 22534.0
 26 01 2015  10 17  -14.3740 18023.7 -13524.8 -36.8841 22533.8
 26 01 2015  10 18  -14.3729 18023.7 -13525.1 -36.8848 22534.0
 26 01 2015  10 19  -14.3718 18024.1 -13525.6 -36.8851 22534.6
 26 01 2015  10 20  -14.3712 18024.7 -13526.0 -36.8850 22535.4
 26 01 2015  10 21  -14.3711 18025.0 -13526.1 -36.8849 22535.6
 26 01 2015  10 22  -14.3706 18025.3 -13526.2 -36.8846 22536.0
 26 01 2015  10 23  -14.3713 18025.3 -13526.6 -36.8852 22536.2
 26 01 2015  10 24  -14.3718 18025.3 -13526.2 -36.8846 22536.0
 26 01 2015  10 25  -14.3718 18025.6 -13527.1 -36.8858 22536.7
 26 01 2015  10 26  -14.3722 18026.1 -13526.7 -36.8843 22536.9
 26 01 2015  10 27  -14.3718 18026.3 -13527.1 -36.8848 22537.3
 26 01 2015  10 28  -14.3710 18026.9 -13527.8 -36.8853 22538.2
 26 01 2015  10 29  -14.3708 18027.6 -13527.8 -36.8843 22538.8
 26 01 2015  10 30  -14.3710 18028.6 -13528.1 -36.8832 22539.8
 26 01 2015  10 31  -14.3703 18028.7 -13528.4 -36.8839 22540.0
 26 01 2015  10 32  -14.3681 18028.3 -13528.2 -36.8840 22539.6
 26 01 2015  10 33  -14.3657 18027.9 -13528.7 -36.8857 22539.5
 26 01 2015  10 34  -14.3650 18028.1 -13529.0 -36.8860 22539.9
 26 01 2015  10 35  -14.3646 18028.0 -13528.8 -36.8856 22539.7
 26 01 2015  10 36  -14.3645 18027.7 -13528.7 -36.8860 22539.4
 26 01 2015  10 37  -14.3650 18027.6 -13529.4 -36.8876 22539.8
 26 01 2015  10 38  -14.3639 18027.2 -13530.0 -36.8895 22539.8
 26 01 2015  10 39  -14.3650 18027.2 -13529.8 -36.8889 22539.6
 26 01 2015  10 40  -14.3652 18027.6 -13529.9 -36.8885 22540.1
 26 01 2015  10 41  -14.3650 18027.7 -13530.0 -36.8885 22540.1
 26 01 2015  10 42  -14.3662 18027.0 -13530.6 -36.8908 22539.9
 26 01 2015  10 43  -14.3682 18025.6 -13530.0 -36.8918 22538.5
 26 01 2015  10 44  -14.3700 18024.1 -13530.4 -36.8948 22537.5
 26 01 2015  10 45  -14.3727 18023.1 -13530.6 -36.8969 22536.8
 26 01 2015  10 46  -14.3738 18022.0 -13530.4 -36.8981 22535.9
 26 01 2015  10 47  -14.3753 18021.6 -13530.7 -36.8992 22535.7
 26 01 2015  10 48  -14.3759 18021.5 -13531.6 -36.9012 22536.1
 26 01 2015  10 49  -14.3765 18021.1 -13531.6 -36.9019 22535.8
 26 01 2015  10 50  -14.3773 18020.1 -13531.7 -36.9036 22535.1
 26 01 2015  10 51  -14.3774 18019.4 -13531.0 -36.9033 22534.1
 26 01 2015  10 52  -14.3804 18018.3 -13532.0 -36.9070 22533.9
 26 01 2015  10 53  -14.3819 18018.3 -13532.6 -36.9082 22534.3
 26 01 2015  10 54  -14.3835 18018.1 -13533.0 -36.9092 22534.3
 26 01 2015  10 55  -14.3844 18017.8 -13533.0 -36.9098 22534.1
 26 01 2015  10 56  -14.3850 18017.4 -13533.3 -36.9110 22533.9
 26 01 2015  10 57  -14.3857 18016.7 -13533.6 -36.9127 22533.5
 26 01 2015  10 58  -14.3867 18016.1 -13533.4 -36.9132 22533.0
 26 01 2015  10 59  -14.3876 18015.8 -13533.9 -36.9148 22533.0
 26 01 2015  11 00  -14.3884 18015.4 -13533.9 -36.9153 22532.7
 26 01 2015  11 01  -14.3894 18014.9 -13533.9 -36.9162 22532.2
 26 01 2015  11 02  -14.3904 18014.2 -13534.2 -36.9177 22531.9
 26 01 2015  11 03  -14.3915 18014.1 -13534.5 -36.9185 22532.0
 26 01 2015  11 04  -14.3926 18014.1 -13534.6 -36.9187 22532.0
 26 01 2015  11 05  -14.3933 18013.9 -13534.9 -36.9196 22532.1
 26 01 2015  11 06  -14.3946 18014.1 -13534.9 -36.9193 22532.2
 26 01 2015  11 07  -14.3958 18014.8 -13535.6 -36.9197 22533.2
 26 01 2015  11 08  -14.3977 18014.9 -13535.5 -36.9193 22533.2
 26 01 2015  11 09  -14.3998 18015.6 -13535.6 -36.9183 22533.8
 26 01 2015  11 10  -14.3992 18016.2 -13535.4 -36.9171 22534.2
 26 01 2015  11 11  -14.4006 18016.5 -13535.4 -36.9167 22534.4
 26 01 2015  11 12  -14.4018 18015.3 -13535.2 -36.9180 22533.3
 26 01 2015  11 13  -14.4029 18014.0 -13535.5 -36.9207 22532.5
 26 01 2015  11 14  -14.4037 18013.2 -13534.6 -36.9200 22531.3
 26 01 2015  11 15  -14.4039 18012.8 -13535.2 -36.9218 22531.3
 26 01 2015  11 16  -14.4036 18012.5 -13535.3 -36.9226 22531.1
 26 01 2015  11 17  -14.4030 18012.4 -13535.7 -36.9235 22531.3
 26 01 2015  11 18  -14.4031 18012.6 -13535.8 -36.9234 22531.5
 26 01 2015  11 19  -14.4038 18012.2 -13535.9 -36.9242 22531.3
 26 01 2015  11 20  -14.4050 18011.7 -13535.8 -36.9247 22530.9
 26 01 2015  11 21  -14.4067 18011.2 -13536.2 -36.9264 22530.7
 26 01 2015  11 22  -14.4092 18010.8 -13536.0 -36.9265 22530.2
 26 01 2015  11 23  -14.4099 18010.7 -13536.4 -36.9275 22530.4
 26 01 2015  11 24  -14.4098 18010.7 -13536.5 -36.9279 22530.5
 26 01 2015  11 25  -14.4107 18010.3 -13536.6 -36.9285 22530.2
 26 01 2015  11 26  -14.4113 18010.4 -13536.6 -36.9284 22530.3
 26 01 2015  11 27  -14.4122 18010.8 -13537.0 -36.9287 22530.9
 26 01 2015  11 28  -14.4126 18011.6 -13537.1 -36.9275 22531.5
 26 01 2015  11 29  -14.4138 18012.5 -13537.3 -36.9266 22532.3
 26 01 2015  11 30  -14.4153 18012.8 -13537.5 -36.9265 22532.7
 26 01 2015  11 31  -14.4170 18013.5 -13537.5 -36.9254 22533.3
 26 01 2015  11 32  -14.4188 18014.9 -13536.8 -36.9219 22534.0
 26 01 2015  11 33  -14.4201 18017.4 -13538.2 -36.9210 22536.9
 26 01 2015  11 34  -14.4209 18018.6 -13537.8 -36.9183 22537.5
 26 01 2015  11 35  -14.4226 18020.1 -13537.3 -36.9151 22538.4
 26 01 2015  11 36  -14.4226 18020.3 -13537.3 -36.9147 22538.7
 26 01 2015  11 37  -14.4224 18021.5 -13536.9 -36.9120 22539.3
 26 01 2015  11 38  -14.4226 18023.6 -13536.6 -36.9082 22540.8
 26 01 2015  11 39  -14.4228 18024.4 -13535.9 -36.9056 22541.0
 26 01 2015  11 40  -14.4236 18025.1 -13536.0 -36.9047 22541.7
 26 01 2015  11 41  -14.4232 18025.6 -13535.9 -36.9038 22542.0
 26 01 2015  11 42  -14.4237 18025.5 -13535.2 -36.9025 22541.6
 26 01 2015  11 43  -14.4235 18024.8 -13535.1 -36.9033 22540.9
 26 01 2015  11 44  -14.4234 18022.5 -13534.7 -36.9060 22538.9
 26 01 2015  11 45  -14.4236 18021.3 -13534.4 -36.9072 22537.7
 26 01 2015  11 46  -14.4223 18019.4 -13534.5 -36.9103 22536.3
 26 01 2015  11 47  -14.4204 18017.9 -13533.7 -36.9109 22534.6
 26 01 2015  11 48  -14.4190 18015.7 -13534.7 -36.9165 22533.4
 26 01 2015  11 49  -14.4163 18014.1 -13534.8 -36.9190 22532.2
 26 01 2015  11 50  -14.4145 18012.6 -13535.4 -36.9225 22531.3
 26 01 2015  11 51  -14.4134 18011.8 -13535.8 -36.9245 22530.9
 26 01 2015  11 52  -14.4141 18011.3 -13536.0 -36.9258 22530.6
 26 01 2015  11 53  -14.4147 18010.9 -13536.1 -36.9267 22530.4
 26 01 2015  11 54  -14.4158 18010.1 -13536.5 -36.9287 22530.0
 26 01 2015  11 55  -14.4166 18010.2 -13536.1 -36.9278 22529.8
 26 01 2015  11 56  -14.4171 18009.4 -13536.7 -36.9303 22529.6
 26 01 2015  11 57  -14.4181 18008.8 -13537.0 -36.9318 22529.2
 26 01 2015  11 58  -14.4186 18007.2 -13537.4 -36.9349 22528.3
 26 01 2015  11 59  -14.4187 18005.9 -13537.0 -36.9362 22526.9
 26 01 2015  12 00  -14.4190 18004.8 -13537.6 -36.9391 22526.4
 26 01 2015  12 01  -14.4190 18003.6 -13537.9 -36.9413 22525.6
 26 01 2015  12 02  -14.4191 18002.8 -13538.2 -36.9433 22525.2
 26 01 2015  12 03  -14.4199 18001.7 -13538.9 -36.9464 22524.8
 26 01 2015  12 04  -14.4201 18001.2 -13538.8 -36.9471 22524.3
 26 01 2015  12 05  -14.4204 18001.7 -13539.4 -36.9474 22525.0
 26 01 2015  12 06  -14.4211 18003.1 -13539.9 -36.9463 22526.5
 26 01 2015  12 07  -14.4229 18004.7 -13539.4 -36.9429 22527.4
 26 01 2015  12 08  -14.4241 18004.7 -13539.5 -36.9430 22527.5
 26 01 2015  12 09  -14.4253 18005.2 -13539.1 -36.9415 22527.7
 26 01 2015  12 10  -14.4263 18004.5 -13539.5 -36.9432 22527.3
 26 01 2015  12 11  -14.4277 18004.2 -13539.8 -36.9443 22527.3
 26 01 2015  12 12  -14.4292 18003.9 -13537.7 -36.9404 22525.8
 26 01 2015  12 13  -14.4300 18003.2 -13539.6 -36.9456 22526.3
 26 01 2015  12 14  -14.4302 18002.4 -13539.7 -36.9470 22525.8
 26 01 2015  12 15  -14.4304 18002.1 -13537.6 -36.9432 22524.3
 26 01 2015  12 16  -14.4299 18001.5 -13537.0 -36.9429 22523.4
 26 01 2015  12 17  -14.4314 18000.6 -13539.4 -36.9492 22524.1
 26 01 2015  12 18  -14.4319 18000.0 -13536.7 -36.9445 22522.0
 26 01 2015  12 19  -14.4314 18000.4 -13539.5 -36.9496 22524.0
 26 01 2015  12 20  -14.4318 17999.8 -13535.6 -36.9427 22521.2
 26 01 2015  12 21  -14.4318 18000.2 -13540.5 -36.9518 22524.5
 26 01 2015  12 22  -14.4374 17999.0 -13530.0 -36.9325 22517.2
 26 01 2015  12 23  -14.4327 18001.0 -13540.8 -36.9513 22525.3
 26 01 2015  12 24  -14.4449 17992.9 -13525.5 -36.9327 22509.6
 26 01 2015  12 25  -14.4359 17992.9 -13522.9 -36.9272 22508.1
 26 01 2015  12 26  -14.4386 18001.0 -13539.7 -36.9491 22524.6
 26 01 2015  12 27  -14.4332 18001.3 -13539.8 -36.9488 22524.9
 26 01 2015  12 28  -14.4244 18027.8 -13537.9 -36.9045 22545.0
 26 01 2015  12 29  -14.4332 18002.5 -13540.1 -36.9475 22526.1
 26 01 2015  12 30  -14.4166 18026.5 -13536.2 -36.9030 22542.9
 26 01 2015  12 31  -14.4287 18010.6 -13534.7 -36.9242 22529.3
 26 01 2015  12 32  -14.4342 18003.2 -13539.2 -36.9448 22526.1
 26 01 2015  12 33  -14.4324 18007.8 -13536.5 -36.9322 22528.1
 26 01 2015  12 34  -14.4305 18006.6 -13537.2 -36.9353 22527.6
 26 01 2015  12 35  -14.4344 18006.0 -13539.8 -36.9417 22528.7
 26 01 2015  12 36  -14.4305 18007.5 -13538.4 -36.9364 22529.1
 26 01 2015  12 37  -14.4279 18006.6 -13538.0 -36.9371 22528.1
 26 01 2015  12 38  -14.4297 18007.9 -13539.4 -36.9379 22530.0
 26 01 2015  12 39  -14.4281 18009.4 -13538.6 -36.9340 22530.7
 26 01 2015  12 40  -14.4304 18009.4 -13538.9 -36.9346 22530.9
 26 01 2015  12 41  -14.4249 18008.8 -13537.2 -36.9320 22529.4
 26 01 2015  12 42  -14.4359 18010.7 -13538.7 -36.9323 22531.8
 26 01 2015  12 43  -14.3754 18007.1 -13534.7 -36.9295 22526.5
 26 01 2015  12 44  -14.4666 18039.8 -13545.3 -36.9011 22559.0
 26 01 2015  12 45  -14.4961 18020.3 -13541.3 -36.9230 22541.0
 26 01 2015  12 46  -14.4589 18042.4 -13514.4 -36.8345 22542.5
 26 01 2015  12 47  -14.4368 18012.3 -13537.0 -36.9263 22532.1
 26 01 2015  12 48  -14.4281 18014.0 -13538.4 -36.9266 22534.2
 26 01 2015  12 49  -14.4296 18013.2 -13538.6 -36.9283 22533.7
 26 01 2015  12 50  -14.4299 18013.4 -13538.1 -36.9269 22533.6
 26 01 2015  12 51  -14.4297 18013.3 -13538.6 -36.9279 22533.8
 26 01 2015  12 52  -14.4288 18013.7 -13539.3 -36.9289 22534.5
 26 01 2015  12 53  -14.4285 18014.2 -13538.4 -36.9262 22534.3
 26 01 2015  12 54  -14.4274 18014.7 -13538.4 -36.9254 22534.8
 26 01 2015  12 55  -14.4269 18015.2 -13538.6 -36.9251 22535.3
 26 01 2015  12 56  -14.4260 18015.7 -13538.5 -36.9241 22535.7
 26 01 2015  12 57  -14.4264 18015.7 -13538.7 -36.9247 22535.8
 26 01 2015  12 58  -14.4266 18016.5 -13537.8 -36.9216 22535.9
 26 01 2015  12 59  -14.4270 18016.2 -13537.4 -36.9212 22535.5
 26 01 2015  13 00  -14.4288 18016.0 -13536.9 -36.9205 22535.0
 26 01 2015  13 01  -14.4299 18015.8 -13536.9 -36.9206 22534.8
 26 01 2015  13 02  -14.4301 18016.0 -13537.0 -36.9207 22535.0
 26 01 2015  13 03  -14.4302 18016.1 -13537.1 -36.9207 22535.1
 26 01 2015  13 04  -14.4309 18016.0 -13536.2 -36.9190 22534.5
 26 01 2015  13 05  -14.4308 18016.3 -13535.1 -36.9163 22534.1
 26 01 2015  13 06  -14.4302 18016.5 -13535.7 -36.9173 22534.6
 26 01 2015  13 07  -14.4300 18016.8 -13535.0 -36.9153 22534.4
 26 01 2015  13 08  -14.4298 18017.1 -13535.3 -36.9155 22534.9
 26 01 2015  13 09  -14.4295 18017.0 -13535.4 -36.9158 22534.8
 26 01 2015  13 10  -14.4291 18017.3 -13534.4 -36.9135 22534.5
 26 01 2015  13 11  -14.4283 18017.8 -13534.7 -36.9131 22535.1
 26 01 2015  13 12  -14.4271 18018.8 -13534.2 -36.9107 22535.5
 26 01 2015  13 13  -14.4256 18019.6 -13533.8 -36.9088 22536.0
 26 01 2015  13 14  -14.4244 18020.0 -13533.8 -36.9080 22536.3
 26 01 2015  13 15  -14.4238 18019.9 -13533.3 -36.9072 22535.9
 26 01 2015  13 16  -14.4230 18020.6 -13533.1 -36.9057 22536.3
 26 01 2015  13 17  -14.4225 18021.2 -13532.6 -36.9039 22536.5
 26 01 2015  13 18  -14.4219 18021.3 -13532.3 -36.9030 22536.4
 26 01 2015  13 19  -14.4214 18021.5 -13532.0 -36.9021 22536.4
 26 01 2015  13 20  -14.4220 18021.5 -13531.8 -36.9016 22536.3
 26 01 2015  13 21  -14.4220 18022.0 -13531.4 -36.9000 22536.5
 26 01 2015  13 22  -14.4223 18021.9 -13531.1 -36.8996 22536.1
 26 01 2015  13 23  -14.4237 18021.8 -13530.4 -36.8983 22535.7
 26 01 2015  13 24  -14.4239 18022.7 -13530.8 -36.8979 22536.6
 26 01 2015  13 25  -14.4233 18023.7 -13531.2 -36.8972 22537.7
 26 01 2015  13 26  -14.4223 18024.4 -13531.3 -36.8963 22538.2
 26 01 2015  13 27  -14.4213 18025.2 -13530.9 -36.8941 22538.7
 26 01 2015  13 28  -14.4213 18025.6 -13530.8 -36.8936 22539.0
 26 01 2015  13 29  -14.4206 18026.3 -13530.9 -36.8925 22539.6
 26 01 2015  13 30  -14.4210 18025.7 -13530.1 -36.8918 22538.6
 26 01 2015  13 31  -14.4226 18024.3 -13529.7 -36.8932 22537.2
 26 01 2015  13 32  -14.4231 18024.1 -13529.7 -36.8935 22537.1
 26 01 2015  13 33  -14.4239 18023.3 -13529.5 -36.8944 22536.4
 26 01 2015  13 34  -14.4258 18021.7 -13529.6 -36.8969 22535.1
 26 01 2015  13 35  -14.4289 18020.1 -13528.7 -36.8974 22533.3
 26 01 2015  13 36  -14.4311 18019.0 -13528.4 -36.8986 22532.2
 26 01 2015  13 37  -14.4316 18019.0 -13529.1 -36.9001 22532.7
 26 01 2015  13 38  -14.4319 18020.1 -13529.5 -36.8992 22533.8
 26 01 2015  13 39  -14.4316 18020.8 -13529.1 -36.8972 22534.1
 26 01 2015  13 40  -14.4309 18021.1 -13529.2 -36.8971 22534.4
 26 01 2015  13 41  -14.4308 18020.0 -13527.8 -36.8958 22532.7
 26 01 2015  13 42  -14.4320 18018.9 -13528.1 -36.8983 22532.0
 26 01 2015  13 43  -14.4341 18017.8 -13528.2 -36.9000 22531.1
 26 01 2015  13 44  -14.4363 18017.1 -13527.9 -36.9004 22530.4
 26 01 2015  13 45  -14.4387 18016.8 -13527.5 -36.9000 22530.0
 26 01 2015  13 46  -14.4397 18015.9 -13527.4 -36.9012 22529.2
 26 01 2015  13 47  -14.4412 18015.1 -13528.3 -36.9044 22529.1
 26 01 2015  13 48  -14.4425 18014.6 -13528.2 -36.9050 22528.6
 26 01 2015  13 49  -14.4435 18014.5 -13527.6 -36.9039 22528.2
 26 01 2015  13 50  -14.4433 18014.6 -13528.0 -36.9045 22528.5
 26 01 2015  13 51  -14.4438 18014.2 -13528.4 -36.9061 22528.4
 26 01 2015  13 52  -14.4451 18013.4 -13527.4 -36.9053 22527.1
 26 01 2015  13 53  -14.4459 18012.9 -13528.1 -36.9074 22527.2
 26 01 2015  13 54  -14.4462 18013.3 -13527.7 -36.9059 22527.2
 26 01 2015  13 55  -14.4439 18015.1 -13529.2 -36.9063 22529.6
 26 01 2015  13 56  -14.4410 18016.9 -13529.8 -36.9046 22531.4
 26 01 2015  13 57  -14.4407 18016.6 -13528.8 -36.9031 22530.5
 26 01 2015  13 58  -14.4402 18016.7 -13528.7 -36.9027 22530.6
 26 01 2015  13 59  -14.4400 18016.5 -13528.6 -36.9027 22530.4
 26 01 2015  14 00  -14.4407 18016.1 -13528.5 -36.9032 22530.0
 26 01 2015  14 01  -14.4413 18016.2 -13528.0 -36.9021 22529.8
 26 01 2015  14 02  -14.4412 18016.1 -13528.1 -36.9024 22529.8
 26 01 2015  14 03  -14.4409 18015.9 -13527.9 -36.9023 22529.5
 26 01 2015  14 04  -14.4411 18015.5 -13527.7 -36.9025 22529.0
 26 01 2015  14 05  -14.4410 18015.1 -13527.7 -36.9030 22528.7
 26 01 2015  14 06  -14.4419 18014.9 -13527.4 -36.9028 22528.4
 26 01 2015  14 07  -14.4419 18015.2 -13528.0 -36.9035 22529.0
 26 01 2015  14 08  -14.4416 18015.7 -13527.6 -36.9020 22529.1
 26 01 2015  14 09  -14.4414 18015.7 -13527.7 -36.9023 22529.2
 26 01 2015  14 10  -14.4399 18016.2 -13527.9 -36.9019 22529.7
 26 01 2015  14 11  -14.4393 18016.6 -13527.8 -36.9011 22530.0
 26 01 2015  14 12  -14.4394 18016.9 -13528.1 -36.9011 22530.4
 26 01 2015  14 13  -14.4365 18018.3 -13528.3 -36.8995 22531.6
 26 01 2015  14 14  -14.4339 18019.0 -13528.0 -36.8977 22532.0
 26 01 2015  14 15  -14.4328 18019.0 -13527.8 -36.8974 22531.8
 26 01 2015  14 16  -14.4320 18018.8 -13528.2 -36.8984 22532.0
 26 01 2015  14 17  -14.4325 18018.4 -13527.4 -36.8976 22531.2
 26 01 2015  14 18  -14.4332 18017.9 -13527.1 -36.8976 22530.6
 26 01 2015  14 19  -14.4331 18017.9 -13527.2 -36.8980 22530.7
 26 01 2015  14 20  -14.4321 18018.3 -13527.2 -36.8972 22530.9
 26 01 2015  14 21  -14.4299 18018.6 -13527.1 -36.8965 22531.1
 26 01 2015  14 22  -14.4298 18018.1 -13526.9 -36.8970 22530.6
 26 01 2015  14 23  -14.4303 18017.2 -13526.6 -36.8976 22529.7
 26 01 2015  14 24  -14.4308 18016.4 -13526.3 -36.8983 22528.9
 26 01 2015  14 25  -14.4315 18015.8 -13526.2 -36.8990 22528.3
 26 01 2015  14 26  -14.4322 18015.3 -13526.0 -36.8993 22527.8
 26 01 2015  14 27  -14.4317 18015.4 -13526.3 -36.8999 22528.1
 26 01 2015  14 28  -14.4312 18015.1 -13526.2 -36.9000 22527.8
 26 01 2015  14 29  -14.4310 18014.6 -13525.6 -36.8995 22527.1
 26 01 2015  14 30  -14.4323 18013.8 -13525.6 -36.9009 22526.4
 26 01 2015  14 31  -14.4327 18013.5 -13525.2 -36.9005 22525.9
 26 01 2015  14 32  -14.4338 18012.7 -13525.5 -36.9023 22525.4
 26 01 2015  14 33  -14.4338 18012.7 -13525.0 -36.9014 22525.2
 26 01 2015  14 34  -14.4341 18012.7 -13525.3 -36.9020 22525.4
 26 01 2015  14 35  -14.4349 18013.0 -13525.0 -36.9009 22525.4
 26 01 2015  14 36  -14.4340 18013.8 -13525.0 -36.8997 22526.1
 26 01 2015  14 37  -14.4327 18014.7 -13525.0 -36.8981 22526.8
 26 01 2015  14 38  -14.4332 18014.8 -13524.9 -36.8978 22526.8
 26 01 2015  14 39  -14.4332 18015.1 -13524.7 -36.8970 22526.9
 26 01 2015  14 40  -14.4338 18014.9 -13524.8 -36.8976 22526.8
 26 01 2015  14 41  -14.4329 18015.4 -13524.4 -36.8960 22527.0
 26 01 2015  14 42  -14.4306 18016.2 -13524.0 -36.8938 22527.4
 26 01 2015  14 43  -14.4296 18016.3 -13524.1 -36.8941 22527.5
 26 01 2015  14 44  -14.4314 18015.8 -13523.1 -36.8927 22526.5
 26 01 2015  14 45  -14.4325 18015.4 -13523.1 -36.8933 22526.2
 26 01 2015  14 46  -14.4327 18015.4 -13522.7 -36.8925 22525.9
 26 01 2015  14 47  -14.4306 18015.9 -13523.1 -36.8925 22526.6
 26 01 2015  14 48  -14.4300 18015.5 -13522.1 -36.8912 22525.6
 26 01 2015  14 49  -14.4285 18015.4 -13522.0 -36.8910 22525.5
 26 01 2015  14 50  -14.4287 18014.8 -13521.9 -36.8916 22525.0
 26 01 2015  14 51  -14.4291 18014.4 -13521.4 -36.8913 22524.4
 26 01 2015  14 52  -14.4284 18014.7 -13521.2 -36.8906 22524.5
 26 01 2015  14 53  -14.4265 18015.3 -13521.4 -36.8899 22525.1
 26 01 2015  14 54  -14.4257 18015.8 -13521.7 -36.8899 22525.7
 26 01 2015  14 55  -14.4240 18016.4 -13521.2 -36.8880 22525.9
 26 01 2015  14 56  -14.4231 18016.4 -13521.2 -36.8879 22525.8
 26 01 2015  14 57  -14.4232 18015.9 -13520.6 -36.8875 22525.1
 26 01 2015  14 58  -14.4224 18016.6 -13520.7 -36.8866 22525.7
 26 01 2015  14 59  -14.4220 18017.2 -13520.9 -36.8861 22526.2
 26 01 2015  15 00  -14.4232 18016.3 -13520.3 -36.8862 22525.2
 26 01 2015  15 01  -14.4233 18016.0 -13520.3 -36.8867 22525.0
 26 01 2015  15 02  -14.4240 18015.3 -13520.1 -36.8873 22524.3
 26 01 2015  15 03  -14.4241 18014.9 -13519.6 -36.8869 22523.7
 26 01 2015  15 04  -14.4229 18015.0 -13519.7 -36.8870 22523.8
 26 01 2015  15 05  -14.4212 18015.1 -13519.6 -36.8868 22523.9
 26 01 2015  15 06  -14.4195 18015.5 -13519.4 -36.8855 22524.1
 26 01 2015  15 07  -14.4183 18016.0 -13519.8 -36.8858 22524.7
 26 01 2015  15 08  -14.4172 18016.6 -13519.7 -36.8847 22525.1
 26 01 2015  15 09  -14.4141 18018.0 -13519.9 -36.8829 22526.4
 26 01 2015  15 10  -14.4097 18019.9 -13520.0 -36.8801 22527.9
 26 01 2015  15 11  -14.4046 18022.2 -13520.1 -36.8768 22529.8
 26 01 2015  15 12  -14.3988 18024.4 -13520.5 -36.8742 22531.8
 26 01 2015  15 13  -14.3936 18026.0 -13520.2 -36.8713 22533.0
 26 01 2015  15 14  -14.3908 18027.0 -13520.1 -36.8695 22533.6
 26 01 2015  15 15  -14.3910 18027.1 -13519.2 -36.8676 22533.2
 26 01 2015  15 16  -14.3932 18026.4 -13518.3 -36.8668 22532.1
 26 01 2015  15 17  -14.3884 18028.4 -13518.8 -36.8647 22534.0
 26 01 2015  15 18  -14.3785 18032.4 -13519.0 -36.8591 22537.3
 26 01 2015  15 19  -14.3706 18036.0 -13518.9 -36.8533 22540.1
 26 01 2015  15 20  -14.3665 18037.6 -13518.7 -36.8506 22541.3
 26 01 2015  15 21  -14.3649 18037.7 -13517.5 -36.8479 22540.7
 26 01 2015  15 22  -14.3640 18037.6 -13517.3 -36.8477 22540.5
 26 01 2015  15 23  -14.3645 18036.7 -13516.4 -36.8473 22539.2
 26 01 2015  15 24  -14.3656 18035.5 -13515.8 -36.8477 22537.9
 26 01 2015  15 25  -14.3693 18033.6 -13515.2 -36.8494 22536.0
 26 01 2015  15 26  -14.3727 18031.5 -13514.2 -36.8508 22533.7
 26 01 2015  15 27  -14.3742 18030.4 -13514.2 -36.8523 22532.9
 26 01 2015  15 28  -14.3747 18030.3 -13513.9 -36.8519 22532.5
 26 01 2015  15 29  -14.3768 18029.9 -13513.9 -36.8524 22532.3
 26 01 2015  15 30  -14.3773 18029.5 -13513.7 -36.8527 22531.8
 26 01 2015  15 31  -14.3785 18029.1 -13513.6 -36.8530 22531.4
 26 01 2015  15 32  -14.3797 18028.5 -13513.6 -36.8539 22531.0
 26 01 2015  15 33  -14.3828 18027.2 -13513.1 -36.8548 22529.6
 26 01 2015  15 34  -14.3850 18026.2 -13513.1 -36.8565 22528.8
 26 01 2015  15 35  -14.3872 18025.8 -13512.6 -36.8560 22528.2
 26 01 2015  15 36  -14.3888 18025.1 -13512.5 -36.8569 22527.6
 26 01 2015  15 37  -14.3893 18025.1 -13512.2 -36.8564 22527.4
 26 01 2015  15 38  -14.3912 18024.7 -13511.9 -36.8563 22526.8
 26 01 2015  15 39  -14.3941 18023.8 -13511.6 -36.8571 22526.0
 26 01 2015  15 40  -14.3979 18022.3 -13511.5 -36.8592 22524.7
 26 01 2015  15 41  -14.3990 18021.6 -13511.5 -36.8602 22524.2
 26 01 2015  15 42  -14.3998 18021.0 -13511.1 -36.8604 22523.5
 26 01 2015  15 43  -14.3998 18020.8 -13511.7 -36.8618 22523.7
 26 01 2015  15 44  -14.4003 18020.2 -13511.6 -36.8625 22523.1
 26 01 2015  15 45  -14.4029 18019.2 -13510.6 -36.8620 22521.7
 26 01 2015  15 46  -14.4041 18018.9 -13510.4 -36.8621 22521.4
 26 01 2015  15 47  -14.4057 18018.8 -13511.0 -36.8637 22521.6
 26 01 2015  15 48  -14.4059 18018.7 -13511.2 -36.8640 22521.7
 26 01 2015  15 49  -14.4052 18018.9 -13510.2 -36.8618 22521.2
 26 01 2015  15 50  -14.4061 18018.6 -13510.2 -36.8622 22521.0
 26 01 2015  15 51  -14.4081 18017.8 -13510.0 -36.8629 22520.2
 26 01 2015  15 52  -14.4069 18018.0 -13510.3 -36.8633 22520.5
 26 01 2015  15 53  -14.4058 18018.2 -13510.5 -36.8635 22520.9
 26 01 2015  15 54  -14.4051 18018.3 -13510.2 -36.8626 22520.8
 26 01 2015  15 55  -14.4058 18017.9 -13509.8 -36.8624 22520.2
 26 01 2015  15 56  -14.4060 18017.5 -13510.4 -36.8642 22520.2
 26 01 2015  15 57  -14.4062 18017.4 -13509.8 -36.8633 22519.8
 26 01 2015  15 58  -14.4054 18017.8 -13509.8 -36.8627 22520.1
 26 01 2015  15 59  -14.4049 18018.0 -13509.8 -36.8624 22520.3
 26 01 2015  16 00  -14.4059 18017.5 -13508.9 -36.8611 22519.4
 26 01 2015  16 01  -14.4060 18017.6 -13509.3 -36.8619 22519.6
 26 01 2015  16 02  -14.4062 18017.6 -13509.1 -36.8615 22519.6
 26 01 2015  16 03  -14.4052 18017.7 -13509.2 -36.8615 22519.6
 26 01 2015  16 04  -14.4042 18016.9 -13509.2 -36.8628 22519.1
 26 01 2015  16 05  -14.4055 18016.0 -13508.3 -36.8622 22517.8
 26 01 2015  16 06  -14.4063 18015.8 -13509.0 -36.8641 22518.0
 26 01 2015  16 07  -14.4085 18015.4 -13507.9 -36.8625 22517.0
 26 01 2015  16 08  -14.4100 18014.6 -13507.8 -36.8634 22516.4
 26 01 2015  16 09  -14.4102 18014.3 -13508.4 -36.8650 22516.4
 26 01 2015  16 10  -14.4094 18014.1 -13507.9 -36.8644 22516.0
 26 01 2015  16 11  -14.4076 18014.0 -13508.4 -36.8656 22516.2
 26 01 2015  16 12  -14.4062 18013.7 -13508.1 -36.8654 22515.8
 26 01 2015  16 13  -14.4063 18012.8 -13507.8 -36.8661 22514.9
 26 01 2015  16 14  -14.4063 18012.6 -13508.1 -36.8672 22514.9
 26 01 2015  16 15  -14.4063 18012.1 -13508.2 -36.8681 22514.6
 26 01 2015  16 16  -14.4064 18011.7 -13507.9 -36.8680 22514.1
 26 01 2015  16 17  -14.4060 18011.4 -13508.5 -36.8697 22514.2
 26 01 2015  16 18  -14.4068 18010.9 -13508.1 -36.8696 22513.5
 26 01 2015  16 19  -14.4067 18010.4 -13508.2 -36.8707 22513.3
 26 01 2015  16 20  -14.4065 18010.1 -13507.8 -36.8702 22512.7
 26 01 2015  16 21  -14.4051 18010.1 -13507.6 -36.8699 22512.7
 26 01 2015  16 22  -14.4042 18010.2 -13507.6 -36.8697 22512.7
 26 01 2015  16 23  -14.4037 18010.1 -13507.7 -36.8700 22512.7
 26 01 2015  16 24  -14.4033 18009.8 -13507.8 -36.8709 22512.5
 26 01 2015  16 25  -14.4024 18009.6 -13507.6 -36.8707 22512.3
 26 01 2015  16 26  -14.4021 18009.4 -13507.4 -36.8705 22512.0
 26 01 2015  16 27  -14.4003 18009.9 -13507.7 -36.8703 22512.6
 26 01 2015  16 28  -14.3985 18010.3 -13507.6 -36.8696 22512.8
 26 01 2015  16 29  -14.3980 18009.9 -13507.9 -36.8708 22512.7
 26 01 2015  16 30  -14.3984 18009.7 -13507.5 -36.8703 22512.3
 26 01 2015  16 31  -14.3955 18010.9 -13507.6 -36.8688 22513.3
 26 01 2015  16 32  -14.3910 18012.2 -13507.9 -36.8672 22514.5
 26 01 2015  16 33  -14.3881 18012.8 -13508.1 -36.8668 22515.1
 26 01 2015  16 34  -14.3878 18012.4 -13507.5 -36.8661 22514.4
 26 01 2015  16 35  -14.3858 18012.7 -13507.4 -36.8654 22514.6
 26 01 2015  16 36  -14.3854 18012.4 -13506.4 -36.8639 22513.7
 26 01 2015  16 37  -14.3860 18011.8 -13507.0 -36.8662 22513.7
 26 01 2015  16 38  -14.3849 18011.8 -13506.2 -36.8645 22513.1
 26 01 2015  16 39  -14.3833 18011.7 -13506.6 -36.8654 22513.3
 26 01 2015  16 40  -14.3822 18011.5 -13506.7 -36.8660 22513.2
 26 01 2015  16 41  -14.3827 18010.7 -13506.2 -36.8661 22512.3
 26 01 2015  16 42  -14.3830 18009.9 -13506.2 -36.8673 22511.6
 26 01 2015  16 43  -14.3843 18008.9 -13505.6 -36.8677 22510.5
 26 01 2015  16 44  -14.3854 18008.1 -13505.6 -36.8688 22509.8
 26 01 2015  16 45  -14.3869 18007.2 -13505.0 -36.8690 22508.7
 26 01 2015  16 46  -14.3883 18006.1 -13504.8 -36.8703 22507.8
 26 01 2015  16 47  -14.3894 18005.2 -13504.7 -36.8714 22507.0
 26 01 2015  16 48  -14.3904 18004.7 -13505.0 -36.8728 22506.7
 26 01 2015  16 49  -14.3904 18004.4 -13505.0 -36.8731 22506.5
 26 01 2015  16 50  -14.3876 18005.4 -13505.2 -36.8721 22507.4
 26 01 2015  16 51  -14.3867 18006.0 -13505.0 -36.8708 22507.8
 26 01 2015  16 52  -14.3859 18006.4 -13505.1 -36.8705 22508.2
 26 01 2015  16 53  -14.3854 18006.3 -13505.4 -36.8713 22508.3
 26 01 2015  16 54  -14.3849 18006.0 -13504.6 -36.8700 22507.5
 26 01 2015  16 55  -14.3827 18005.8 -13504.7 -36.8705 22507.5
 26 01 2015  16 56  -14.3822 18005.2 -13504.7 -36.8714 22506.9
 26 01 2015  16 57  -14.3820 18004.7 -13504.1 -36.8710 22506.2
 26 01 2015  16 58  -14.3815 18004.0 -13503.9 -36.8717 22505.5
 26 01 2015  16 59  -14.3799 18003.9 -13504.1 -36.8721 22505.6
 26 01 2015  17 00  -14.3793 18003.5 -13504.1 -36.8727 22505.3
 26 01 2015  17 01  -14.3784 18003.4 -13504.5 -36.8737 22505.4
 26 01 2015  17 02  -14.3779 18002.9 -13503.9 -36.8733 22504.7
 26 01 2015  17 03  -14.3765 18003.0 -13504.3 -36.8740 22505.0
 26 01 2015  17 04  -14.3738 18003.5 -13504.6 -36.8738 22505.6
 26 01 2015  17 05  -14.3725 18003.1 -13504.1 -36.8733 22504.9
 26 01 2015  17 06  -14.3726 18002.9 -13504.1 -36.8737 22504.7
 26 01 2015  17 07  -14.3715 18003.1 -13504.3 -36.8739 22505.0
 26 01 2015  17 08  -14.3713 18003.0 -13504.1 -36.8736 22504.8
 26 01 2015  17 09  -14.3687 18003.1 -13504.6 -36.8744 22505.3
 26 01 2015  17 10  -14.3656 18003.6 -13504.6 -36.8736 22505.6
 26 01 2015  17 11  -14.3638 18003.6 -13504.5 -36.8733 22505.6
 26 01 2015  17 12  -14.3636 18003.3 -13504.9 -36.8748 22505.6
 26 01 2015  17 13  -14.3632 18002.9 -13504.9 -36.8753 22505.3
 26 01 2015  17 14  -14.3627 18002.6 -13504.2 -36.8744 22504.6
 26 01 2015  17 15  -14.3621 18002.1 -13504.4 -36.8756 22504.3
 26 01 2015  17 16  -14.3633 18001.4 -13504.6 -36.8770 22503.9
 26 01 2015  17 17  -14.3645 18000.8 -13504.3 -36.8774 22503.2
 26 01 2015  17 18  -14.3659 18000.2 -13504.1 -36.8779 22502.6
 26 01 2015  17 19  -14.3657 17999.8 -13503.7 -36.8775 22502.1
 26 01 2015  17 20  -14.3658 17999.4 -13503.8 -36.8786 22501.8
 26 01 2015  17 21  -14.3641 17999.2 -13504.1 -36.8793 22501.8
 26 01 2015  17 22  -14.3633 17999.0 -13504.5 -36.8805 22501.9
 26 01 2015  17 23  -14.3645 17997.6 -13503.9 -36.8814 22500.4
 26 01 2015  17 24  -14.3638 17997.0 -13504.0 -36.8826 22500.0
 26 01 2015  17 25  -14.3612 17996.9 -13504.2 -36.8832 22500.1
 26 01 2015  17 26  -14.3590 17997.1 -13504.6 -36.8835 22500.4
 26 01 2015  17 27  -14.3575 17997.0 -13504.5 -36.8836 22500.3
 26 01 2015  17 28  -14.3558 17996.4 -13504.7 -36.8848 22499.9
 26 01 2015  17 29  -14.3538 17996.5 -13504.8 -36.8849 22500.1
 26 01 2015  17 30  -14.3548 17995.7 -13504.4 -36.8852 22499.2
 26 01 2015  17 31  -14.3554 17995.0 -13504.1 -36.8859 22498.5
 26 01 2015  17 32  -14.3555 17994.7 -13504.6 -36.8873 22498.5
 26 01 2015  17 33  -14.3542 17994.6 -13504.6 -36.8874 22498.4
 26 01 2015  17 34  -14.3539 17993.6 -13505.0 -36.8896 22497.9
 26 01 2015  17 35  -14.3552 17992.9 -13503.9 -36.8886 22496.7
 26 01 2015  17 36  -14.3532 17992.9 -13504.6 -36.8900 22497.1
 26 01 2015  17 37  -14.3521 17992.5 -13504.1 -36.8896 22496.5
 26 01 2015  17 38  -14.3490 17992.2 -13504.4 -36.8906 22496.4
 26 01 2015  17 39  -14.3492 17991.7 -13504.5 -36.8917 22496.0
 26 01 2015  17 40  -14.3503 17991.4 -13504.5 -36.8922 22495.8
 26 01 2015  17 41  -14.3515 17990.8 -13504.9 -36.8939 22495.6
 26 01 2015  17 42  -14.3517 17990.6 -13504.7 -36.8937 22495.2
 26 01 2015  17 43  -14.3506 17990.0 -13504.7 -36.8947 22494.9
 26 01 2015  17 44  -14.3521 17988.6 -13504.4 -36.8962 22493.5
 26 01 2015  17 45  -14.3519 17988.6 -13504.6 -36.8966 22493.7
 26 01 2015  17 46  -14.3501 17989.3 -13504.9 -36.8961 22494.4
 26 01 2015  17 47  -14.3526 17988.7 -13504.8 -36.8969 22493.9
 26 01 2015  17 48  -14.3542 17988.2 -13505.3 -36.8987 22493.7
 26 01 2015  17 49  -14.3549 17987.6 -13504.7 -36.8982 22492.9
 26 01 2015  17 50  -14.3534 17987.4 -13505.0 -36.8992 22492.9
 26 01 2015  17 51  -14.3514 17987.1 -13505.0 -36.8997 22492.7
 26 01 2015  17 52  -14.3520 17986.6 -13505.4 -36.9013 22492.6
 26 01 2015  17 53  -14.3525 17986.3 -13504.9 -36.9007 22492.0
 26 01 2015  17 54  -14.3530 17985.7 -13505.4 -36.9027 22491.8
 26 01 2015  17 55  -14.3561 17984.6 -13504.9 -36.9034 22490.7
 26 01 2015  17 56  -14.3567 17984.5 -13504.8 -36.9032 22490.5
 26 01 2015  17 57  -14.3565 17984.3 -13504.8 -36.9037 22490.3
 26 01 2015  17 58  -14.3578 17983.8 -13505.7 -36.9060 22490.5
 26 01 2015  17 59  -14.3571 17984.1 -13505.5 -36.9054 22490.6
 26 01 2015  18 00  -14.3567 17984.0 -13505.3 -36.9051 22490.3
 26 01 2015  18 01  -14.3591 17982.8 -13505.5 -36.9072 22489.5
 26 01 2015  18 02  -14.3614 17981.9 -13505.3 -36.9083 22488.7
 26 01 2015  18 03  -14.3628 17981.5 -13505.4 -36.9091 22488.4
 26 01 2015  18 04  -14.3618 17982.1 -13505.7 -36.9088 22489.1
 26 01 2015  18 05  -14.3617 17982.2 -13505.6 -36.9084 22489.1
 26 01 2015  18 06  -14.3612 17982.2 -13505.6 -36.9084 22489.1
 26 01 2015  18 07  -14.3606 17982.3 -13505.8 -36.9087 22489.3
 26 01 2015  18 08  -14.3592 17982.8 -13506.8 -36.9100 22490.3
 26 01 2015  18 09  -14.3579 17983.3 -13506.2 -36.9079 22490.4
 26 01 2015  18 10  -14.3570 17983.8 -13505.9 -36.9066 22490.6
 26 01 2015  18 11  -14.3556 17984.6 -13505.7 -36.9050 22491.1
 26 01 2015  18 12  -14.3549 17984.9 -13506.1 -36.9053 22491.6
 26 01 2015  18 13  -14.3550 17985.2 -13505.7 -36.9041 22491.6
 26 01 2015  18 14  -14.3539 17984.9 -13506.0 -36.9052 22491.5
 26 01 2015  18 15  -14.3537 17984.9 -13505.9 -36.9048 22491.5
 26 01 2015  18 16  -14.3535 17985.1 -13505.5 -36.9037 22491.4
 26 01 2015  18 17  -14.3540 17985.4 -13505.8 -36.9040 22491.8
 26 01 2015  18 18  -14.3544 17985.6 -13505.1 -36.9023 22491.5
 26 01 2015  18 19  -14.3537 17985.9 -13505.4 -36.9023 22491.9
 26 01 2015  18 20  -14.3528 17985.8 -13505.8 -36.9032 22492.1
 26 01 2015  18 21  -14.3520 17986.0 -13505.0 -36.9016 22491.8
 26 01 2015  18 22  -14.3532 17985.6 -13504.8 -36.9016 22491.4
 26 01 2015  18 23  -14.3534 17985.5 -13505.0 -36.9022 22491.4
 26 01 2015  18 24  -14.3518 17985.6 -13504.5 -36.9009 22491.2
 26 01 2015  18 25  -14.3527 17985.3 -13504.8 -36.9019 22491.1
 26 01 2015  18 26  -14.3524 17985.0 -13504.8 -36.9025 22490.9
 26 01 2015  18 27  -14.3534 17984.6 -13504.4 -36.9022 22490.3
 26 01 2015  18 28  -14.3553 17983.8 -13503.9 -36.9025 22489.4
 26 01 2015  18 29  -14.3580 17983.0 -13503.5 -36.9030 22488.5
 26 01 2015  18 30  -14.3585 17982.9 -13503.2 -36.9025 22488.2
 26 01 2015  18 31  -14.3570 17983.0 -13503.0 -36.9019 22488.2
 26 01 2015  18 32  -14.3553 17983.0 -13503.4 -36.9028 22488.5
 26 01 2015  18 33  -14.3546 17982.9 -13503.2 -36.9025 22488.2
 26 01 2015  18 34  -14.3543 17982.9 -13504.0 -36.9042 22488.7
 26 01 2015  18 35  -14.3548 17982.5 -13503.8 -36.9043 22488.3
 26 01 2015  18 36  -14.3570 17982.0 -13503.4 -36.9041 22487.7
 26 01 2015  18 37  -14.3586 17981.9 -13503.4 -36.9045 22487.5
 26 01 2015  18 38  -14.3584 17981.6 -13503.6 -36.9053 22487.4
 26 01 2015  18 39  -14.3587 17981.3 -13503.0 -36.9046 22486.9
 26 01 2015  18 40  -14.3598 17981.1 -13503.0 -36.9049 22486.7
 26 01 2015  18 41  -14.3611 17981.3 -13502.9 -36.9044 22486.8
 26 01 2015  18 42  -14.3627 17981.0 -13502.8 -36.9046 22486.4
 26 01 2015  18 43  -14.3645 17980.4 -13502.7 -36.9054 22485.9
 26 01 2015  18 44  -14.3658 17980.0 -13502.8 -36.9061 22485.6
 26 01 2015  18 45  -14.3670 17979.6 -13502.8 -36.9067 22485.4
 26 01 2015  18 46  -14.3678 17979.6 -13502.5 -36.9061 22485.2
 26 01 2015  18 47  -14.3673 17980.2 -13502.0 -36.9041 22485.3
 26 01 2015  18 48  -14.3678 17980.4 -13502.6 -36.9050 22485.9
 26 01 2015  18 49  -14.3679 17980.4 -13502.8 -36.9054 22486.0
 26 01 2015  18 50  -14.3680 17980.4 -13502.1 -36.9041 22485.6
 26 01 2015  18 51  -14.3675 17980.4 -13501.8 -36.9034 22485.4
 26 01 2015  18 52  -14.3675 17980.6 -13502.2 -36.9040 22485.8
 26 01 2015  18 53  -14.3675 17980.9 -13502.1 -36.9033 22485.9
 26 01 2015  18 54  -14.3663 17981.6 -13502.3 -36.9028 22486.7
 26 01 2015  18 55  -14.3660 17981.7 -13502.1 -36.9021 22486.7
 26 01 2015  18 56  -14.3658 17982.0 -13502.1 -36.9017 22486.9
 26 01 2015  18 57  -14.3653 17982.3 -13502.0 -36.9009 22487.0
 26 01 2015  18 58  -14.3653 17982.2 -13501.9 -36.9009 22486.9
 26 01 2015  18 59  -14.3653 17982.0 -13501.7 -36.9008 22486.6
 26 01 2015  19 00  -14.3649 17982.2 -13501.6 -36.9004 22486.7
 26 01 2015  19 01  -14.3643 17982.3 -13501.5 -36.8999 22486.8
 26 01 2015  19 02  -14.3645 17982.1 -13501.7 -36.9006 22486.7
 26 01 2015  19 03  -14.3650 17982.1 -13501.4 -36.9000 22486.6
 26 01 2015  19 04  -14.3647 17982.2 -13501.4 -36.8999 22486.6
 26 01 2015  19 05  -14.3648 17982.1 -13501.2 -36.8997 22486.4
 26 01 2015  19 06  -14.3651 17982.2 -13501.3 -36.8997 22486.5
 26 01 2015  19 07  -14.3640 17982.6 -13500.7 -36.8978 22486.5
 26 01 2015  19 08  -14.3637 17982.9 -13500.9 -36.8979 22486.8
 26 01 2015  19 09  -14.3652 17983.1 -13500.9 -36.8975 22487.0
 26 01 2015  19 10  -14.3658 17983.3 -13500.6 -36.8967 22487.0
 26 01 2015  19 11  -14.3658 17983.4 -13500.4 -36.8960 22487.0
 26 01 2015  19 12  -14.3667 17983.6 -13500.3 -36.8955 22487.0
 26 01 2015  19 13  -14.3675 17984.0 -13500.5 -36.8953 22487.5
 26 01 2015  19 14  -14.3676 17984.4 -13500.1 -36.8939 22487.6
 26 01 2015  19 15  -14.3688 17984.6 -13500.0 -36.8934 22487.7
 26 01 2015  19 16  -14.3697 17984.5 -13499.9 -36.8932 22487.6
 26 01 2015  19 17  -14.3712 17984.2 -13499.8 -36.8935 22487.2
 26 01 2015  19 18  -14.3717 17984.0 -13499.6 -36.8935 22486.9
 26 01 2015  19 19  -14.3719 17983.9 -13499.4 -36.8932 22486.7
 26 01 2015  19 20  -14.3726 17983.7 -13498.8 -36.8922 22486.3
 26 01 2015  19 21  -14.3729 17983.8 -13499.0 -36.8926 22486.4
 26 01 2015  19 22  -14.3731 17984.1 -13499.4 -36.8930 22486.9
 26 01 2015  19 23  -14.3742 17984.2 -13498.8 -36.8916 22486.6
 26 01 2015  19 24  -14.3753 17984.2 -13499.0 -36.8919 22486.7
 26 01 2015  19 25  -14.3762 17984.1 -13499.1 -36.8923 22486.8
 26 01 2015  19 26  -14.3768 17984.4 -13499.2 -36.8920 22487.0
 26 01 2015  19 27  -14.3769 17984.7 -13499.3 -36.8917 22487.4
 26 01 2015  19 28  -14.3775 17984.9 -13499.2 -36.8913 22487.5
 26 01 2015  19 29  -14.3781 17985.2 -13499.3 -36.8911 22487.8
 26 01 2015  19 30  -14.3791 17985.2 -13499.4 -36.8912 22487.8
 26 01 2015  19 31  -14.3795 17985.1 -13499.6 -36.8918 22487.8
 26 01 2015  19 32  -14.3785 17984.9 -13499.6 -36.8920 22487.7
 26 01 2015  19 33  -14.3771 17984.7 -13499.9 -36.8930 22487.7
 26 01 2015  19 34  -14.3759 17984.4 -13500.5 -36.8948 22487.8
 26 01 2015  19 35  -14.3745 17984.1 -13500.5 -36.8950 22487.6
 26 01 2015  19 36  -14.3730 17984.1 -13500.8 -36.8956 22487.8
 26 01 2015  19 37  -14.3717 17984.1 -13501.0 -36.8961 22487.9
 26 01 2015  19 38  -14.3711 17984.2 -13501.5 -36.8971 22488.3
 26 01 2015  19 39  -14.3705 17984.4 -13502.0 -36.8976 22488.7
 26 01 2015  19 40  -14.3700 17984.5 -13502.1 -36.8979 22488.8
 26 01 2015  19 41  -14.3693 17984.4 -13502.3 -36.8982 22488.9
 26 01 2015  19 42  -14.3685 17984.4 -13502.4 -36.8985 22488.9
 26 01 2015  19 43  -14.3678 17984.6 -13501.8 -36.8970 22488.7
 26 01 2015  19 44  -14.3677 17984.6 -13502.7 -36.8989 22489.3
 26 01 2015  19 45  -14.3688 17984.7 -13502.2 -36.8976 22489.1
 26 01 2015  19 46  -14.3697 17984.6 -13501.7 -36.8968 22488.7
 26 01 2015  19 47  -14.3700 17984.6 -13501.7 -36.8968 22488.8
 26 01 2015  19 48  -14.3703 17984.8 -13501.9 -36.8969 22489.0
 26 01 2015  19 49  -14.3699 17984.9 -13501.8 -36.8967 22489.0
 26 01 2015  19 50  -14.3689 17985.2 -13502.0 -36.8965 22489.3
 26 01 2015  19 51  -14.3688 17985.3 -13502.3 -36.8970 22489.6
 26 01 2015  19 52  -14.3697 17985.4 -13501.7 -36.8955 22489.4
 26 01 2015  19 53  -14.3697 17985.5 -13502.1 -36.8962 22489.6
 26 01 2015  19 54  -14.3698 17985.6 -13502.1 -36.8961 22489.7
 26 01 2015  19 55  -14.3703 17985.7 -13501.9 -36.8956 22489.7
 26 01 2015  19 56  -14.3714 17985.8 -13501.8 -36.8951 22489.7
 26 01 2015  19 57  -14.3718 17985.7 -13501.7 -36.8952 22489.5
 26 01 2015  19 58  -14.3720 17985.5 -13501.9 -36.8958 22489.5
 26 01 2015  19 59  -14.3730 17985.1 -13501.5 -36.8956 22489.0
 26 01 2015  20 00  -14.3738 17985.0 -13501.5 -36.8957 22488.9
 26 01 2015  20 01  -14.3749 17984.8 -13501.4 -36.8959 22488.7
 26 01 2015  20 02  -14.3761 17984.8 -13501.3 -36.8958 22488.6
 26 01 2015  20 03  -14.3776 17984.7 -13501.2 -36.8957 22488.5
 26 01 2015  20 04  -14.3793 17984.4 -13501.2 -36.8961 22488.3
 26 01 2015  20 05  -14.3805 17984.2 -13501.3 -36.8966 22488.1
 26 01 2015  20 06  -14.3811 17983.9 -13501.4 -36.8973 22487.9
 26 01 2015  20 07  -14.3813 17983.7 -13501.2 -36.8970 22487.7
 26 01 2015  20 08  -14.3816 17983.7 -13501.6 -36.8979 22487.9
 26 01 2015  20 09  -14.3819 17983.8 -13500.8 -36.8962 22487.5
 26 01 2015  20 10  -14.3813 17983.9 -13501.0 -36.8965 22487.7
 26 01 2015  20 11  -14.3805 17984.4 -13501.2 -36.8963 22488.2
 26 01 2015  20 12  -14.3799 17985.0 -13501.9 -36.8966 22489.2
 26 01 2015  20 13  -14.3794 17985.6 -13502.1 -36.8961 22489.8
 26 01 2015  20 14  -14.3794 17986.1 -13501.6 -36.8944 22489.9
 26 01 2015  20 15  -14.3794 17986.4 -13501.8 -36.8942 22490.2
 26 01 2015  20 16  -14.3790 17986.5 -13501.4 -36.8934 22490.1
 26 01 2015  20 17  -14.3784 17986.3 -13501.0 -36.8929 22489.6
 26 01 2015  20 18  -14.3777 17985.9 -13501.2 -36.8937 22489.4
 26 01 2015  20 19  -14.3775 17985.3 -13501.3 -36.8948 22489.0
 26 01 2015  20 20  -14.3785 17984.3 -13501.4 -36.8967 22488.3
 26 01 2015  20 21  -14.3797 17983.4 -13501.4 -36.8981 22487.6
 26 01 2015  20 22  -14.3796 17983.1 -13501.2 -36.8980 22487.2
 26 01 2015  20 23  -14.3795 17983.3 -13500.8 -36.8969 22487.1
 26 01 2015  20 24  -14.3796 17983.4 -13501.5 -36.8981 22487.6
 26 01 2015  20 25  -14.3791 17983.7 -13501.5 -36.8977 22487.9
 26 01 2015  20 26  -14.3788 17983.8 -13502.2 -36.8990 22488.3
 26 01 2015  20 27  -14.3792 17984.0 -13501.8 -36.8980 22488.3
 26 01 2015  20 28  -14.3798 17984.0 -13502.2 -36.8988 22488.5
 26 01 2015  20 29  -14.3799 17984.2 -13501.9 -36.8979 22488.5
 26 01 2015  20 30  -14.3804 17984.2 -13502.1 -36.8983 22488.6
 26 01 2015  20 31  -14.3809 17984.3 -13501.9 -36.8978 22488.6
 26 01 2015  20 32  -14.3805 17984.6 -13502.4 -36.8981 22489.1
 26 01 2015  20 33  -14.3795 17984.9 -13502.6 -36.8982 22489.5
 26 01 2015  20 34  -14.3786 17985.2 -13502.7 -36.8979 22489.8
 26 01 2015  20 35  -14.3780 17985.3 -13502.9 -36.8981 22490.0
 26 01 2015  20 36  -14.3777 17985.3 -13502.3 -36.8970 22489.6
 26 01 2015  20 37  -14.3778 17985.0 -13502.1 -36.8969 22489.2
 26 01 2015  20 38  -14.3777 17984.6 -13502.4 -36.8982 22489.1
 26 01 2015  20 39  -14.3781 17984.5 -13502.0 -36.8977 22488.8
 26 01 2015  20 40  -14.3781 17984.4 -13502.0 -36.8976 22488.7
 26 01 2015  20 41  -14.3779 17984.4 -13502.0 -36.8977 22488.8
 26 01 2015  20 42  -14.3775 17984.5 -13502.7 -36.8990 22489.3
 26 01 2015  20 43  -14.3770 17984.4 -13503.1 -36.8998 22489.4
 26 01 2015  20 44  -14.3767 17984.4 -13502.8 -36.8993 22489.2
 26 01 2015  20 45  -14.3766 17984.4 -13502.9 -36.8995 22489.3
 26 01 2015  20 46  -14.3759 17984.6 -13503.0 -36.8996 22489.5
 26 01 2015  20 47  -14.3748 17984.7 -13503.4 -36.9001 22489.8
 26 01 2015  20 48  -14.3742 17984.9 -13502.7 -36.8984 22489.5
 26 01 2015  20 49  -14.3730 17985.2 -13503.2 -36.8991 22490.1
 26 01 2015  20 50  -14.3726 17985.2 -13502.9 -36.8984 22489.9
 26 01 2015  20 51  -14.3726 17984.9 -13503.0 -36.8990 22489.8
 26 01 2015  20 52  -14.3727 17984.6 -13503.2 -36.8998 22489.6
 26 01 2015  20 53  -14.3734 17984.3 -13503.0 -36.8999 22489.3
 26 01 2015  20 54  -14.3738 17984.1 -13503.1 -36.9005 22489.1
 26 01 2015  20 55  -14.3743 17983.8 -13503.2 -36.9011 22488.9
 26 01 2015  20 56  -14.3753 17983.5 -13503.0 -36.9012 22488.6
 26 01 2015  20 57  -14.3760 17983.1 -13503.2 -36.9021 22488.4
 26 01 2015  20 58  -14.3763 17983.0 -13503.1 -36.9022 22488.2
 26 01 2015  20 59  -14.3766 17982.8 -13503.4 -36.9029 22488.3
 26 01 2015  21 00  -14.3774 17982.7 -13503.4 -36.9032 22488.1
 26 01 2015  21 01  -14.3781 17982.4 -13503.4 -36.9036 22488.0
 26 01 2015  21 02  -14.3791 17982.1 -13503.4 -36.9042 22487.7
 26 01 2015  21 03  -14.3802 17981.6 -13503.4 -36.9048 22487.3
 26 01 2015  21 04  -14.3812 17981.2 -13503.1 -36.9049 22486.9
 26 01 2015  21 05  -14.3819 17980.9 -13503.3 -36.9058 22486.7
 26 01 2015  21 06  -14.3827 17980.5 -13503.4 -36.9066 22486.5
 26 01 2015  21 07  -14.3836 17980.2 -13503.6 -36.9075 22486.4
 26 01 2015  21 08  -14.3841 17980.1 -13503.6 -36.9075 22486.2
 26 01 2015  21 09  -14.3841 17980.1 -13503.8 -36.9078 22486.4
 26 01 2015  21 10  -14.3838 17980.3 -13503.4 -36.9068 22486.3
 26 01 2015  21 11  -14.3833 17980.5 -13504.1 -36.9080 22486.8
 26 01 2015  21 12  -14.3829 17980.7 -13504.8 -36.9092 22487.5
 26 01 2015  21 13  -14.3821 17981.0 -13504.5 -36.9081 22487.5
 26 01 2015  21 14  -14.3814 17981.2 -13504.6 -36.9081 22487.7
 26 01 2015  21 15  -14.3804 17981.4 -13504.6 -36.9076 22487.9
 26 01 2015  21 16  -14.3799 17981.4 -13504.4 -36.9071 22487.8
 26 01 2015  21 17  -14.3794 17981.5 -13504.8 -36.9079 22488.1
 26 01 2015  21 18  -14.3791 17981.5 -13504.5 -36.9072 22487.9
 26 01 2015  21 19  -14.3792 17981.5 -13504.8 -36.9077 22488.1
 26 01 2015  21 20  -14.3799 17981.5 -13504.6 -36.9074 22487.9
 26 01 2015  21 21  -14.3799 17981.7 -13504.8 -36.9076 22488.2
 26 01 2015  21 22  -14.3804 17981.6 -13504.4 -36.9069 22487.9
 26 01 2015  21 23  -14.3811 17981.4 -13504.6 -36.9076 22487.9
 26 01 2015  21 24  -14.3815 17981.2 -13504.6 -36.9079 22487.7
 26 01 2015  21 25  -14.3823 17980.8 -13504.8 -36.9091 22487.5
 26 01 2015  21 26  -14.3833 17980.3 -13504.7 -36.9095 22487.1
 26 01 2015  21 27  -14.3842 17980.0 -13504.6 -36.9097 22486.8
 26 01 2015  21 28  -14.3845 17979.8 -13504.8 -36.9104 22486.7
 26 01 2015  21 29  -14.3852 17979.5 -13505.0 -36.9114 22486.6
 26 01 2015  21 30  -14.3854 17979.5 -13504.8 -36.9110 22486.5
 26 01 2015  21 31  -14.3856 17979.6 -13505.1 -36.9114 22486.7
 26 01 2015  21 32  -14.3852 17980.0 -13505.3 -36.9111 22487.2
 26 01 2015  21 33  -14.3847 17980.3 -13506.2 -36.9125 22487.9
 26 01 2015  21 34  -14.3848 17980.2 -13505.4 -36.9111 22487.4
 26 01 2015  21 35  -14.3849 17979.7 -13505.2 -36.9115 22486.9
 26 01 2015  21 36  -14.3852 17979.1 -13505.5 -36.9129 22486.5
 26 01 2015  21 37  -14.3858 17978.5 -13505.8 -36.9144 22486.3
 26 01 2015  21 38  -14.3863 17978.1 -13506.0 -36.9154 22486.1
 26 01 2015  21 39  -14.3871 17977.9 -13505.6 -36.9150 22485.7
 26 01 2015  21 40  -14.3873 17977.9 -13505.7 -36.9153 22485.7
 26 01 2015  21 41  -14.3879 17977.9 -13506.1 -36.9160 22485.9
 26 01 2015  21 42  -14.3883 17977.9 -13506.1 -36.9159 22486.0
 26 01 2015  21 43  -14.3889 17977.8 -13506.3 -36.9165 22486.0
 26 01 2015  21 44  -14.3894 17977.6 -13505.9 -36.9161 22485.7
 26 01 2015  21 45  -14.3897 17977.5 -13506.1 -36.9167 22485.7
 26 01 2015  21 46  -14.3901 17977.3 -13506.1 -36.9170 22485.5
 26 01 2015  21 47  -14.3903 17977.1 -13506.1 -36.9173 22485.3
 26 01 2015  21 48  -14.3906 17976.9 -13506.2 -36.9177 22485.3
 26 01 2015  21 49  -14.3910 17976.9 -13506.3 -36.9179 22485.3
 26 01 2015  21 50  -14.3913 17977.0 -13506.4 -36.9181 22485.4
 26 01 2015  21 51  -14.3913 17977.0 -13506.5 -36.9182 22485.5
 26 01 2015  21 52  -14.3910 17977.3 -13506.6 -36.9181 22485.8
 26 01 2015  21 53  -14.3911 17977.3 -13506.7 -36.9181 22485.9
 26 01 2015  21 54  -14.3911 17977.6 -13506.8 -36.9180 22486.2
 26 01 2015  21 55  -14.3914 17977.6 -13506.6 -36.9176 22486.0
 26 01 2015  21 56  -14.3916 17977.5 -13506.8 -36.9180 22486.1
 26 01 2015  21 57  -14.3920 17977.5 -13506.5 -36.9175 22485.9
 26 01 2015  21 58  -14.3928 17977.4 -13506.8 -36.9183 22486.0
 26 01 2015  21 59  -14.3930 17977.3 -13506.7 -36.9182 22485.9
 26 01 2015  22 00  -14.3930 17977.2 -13507.1 -36.9191 22486.0
 26 01 2015  22 01  -14.3936 17976.8 -13507.2 -36.9201 22485.7
 26 01 2015  22 02  -14.3944 17976.5 -13506.7 -36.9194 22485.2
 26 01 2015  22 03  -14.3946 17976.5 -13507.3 -36.9206 22485.5
 26 01 2015  22 04  -14.3949 17976.5 -13506.9 -36.9198 22485.3
 26 01 2015  22 05  -14.3949 17976.5 -13507.0 -36.9201 22485.4
 26 01 2015  22 06  -14.3952 17976.5 -13507.0 -36.9200 22485.4
 26 01 2015  22 07  -14.3950 17976.6 -13507.0 -36.9198 22485.5
 26 01 2015  22 08  -14.3949 17976.8 -13507.0 -36.9195 22485.7
 26 01 2015  22 09  -14.3943 17977.1 -13507.2 -36.9195 22486.0
 26 01 2015  22 10  -14.3939 17977.3 -13507.4 -36.9195 22486.3
 26 01 2015  22 11  -14.3936 17977.4 -13507.4 -36.9195 22486.4
 26 01 2015  22 12  -14.3937 17977.4 -13507.3 -36.9192 22486.4
 26 01 2015  22 13  -14.3940 17977.4 -13507.3 -36.9193 22486.3
 26 01 2015  22 14  -14.3945 17977.5 -13507.3 -36.9191 22486.3
 26 01 2015  22 15  -14.3951 17977.2 -13507.4 -36.9199 22486.2
 26 01 2015  22 16  -14.3953 17977.2 -13507.4 -36.9196 22486.2
 26 01 2015  22 17  -14.3957 17977.4 -13507.6 -36.9198 22486.5
 26 01 2015  22 18  -14.3960 17977.3 -13507.7 -36.9202 22486.5
 26 01 2015  22 19  -14.3962 17977.4 -13507.6 -36.9199 22486.5
 26 01 2015  22 20  -14.3963 17977.3 -13507.5 -36.9198 22486.4
 26 01 2015  22 21  -14.3969 17977.0 -13507.3 -36.9198 22486.0
 26 01 2015  22 22  -14.3977 17976.7 -13507.1 -36.9200 22485.6
 26 01 2015  22 23  -14.3981 17976.4 -13508.0 -36.9223 22485.9
 26 01 2015  22 24  -14.3987 17976.0 -13507.5 -36.9217 22485.3
 26 01 2015  22 25  -14.3993 17975.6 -13507.5 -36.9224 22485.0
 26 01 2015  22 26  -14.3999 17975.5 -13507.3 -36.9221 22484.8
 26 01 2015  22 27  -14.4001 17975.7 -13508.2 -36.9237 22485.5
 26 01 2015  22 28  -14.4003 17975.9 -13508.0 -36.9231 22485.5
 26 01 2015  22 29  -14.4001 17976.1 -13507.8 -36.9223 22485.5
 26 01 2015  22 30  -14.3997 17976.4 -13507.7 -36.9215 22485.8
 26 01 2015  22 31  -14.3989 17976.8 -13508.2 -36.9220 22486.4
 26 01 2015  22 32  -14.3983 17977.2 -13508.3 -36.9216 22486.8
 26 01 2015  22 33  -14.3980 17977.3 -13508.1 -36.9210 22486.7
 26 01 2015  22 34  -14.3981 17977.3 -13508.1 -36.9211 22486.7
 26 01 2015  22 35  -14.3984 17977.3 -13507.9 -36.9207 22486.6
 26 01 2015  22 36  -14.3988 17977.1 -13508.0 -36.9211 22486.5
 26 01 2015  22 37  -14.3991 17977.1 -13508.1 -36.9213 22486.6
 26 01 2015  22 38  -14.3994 17977.0 -13507.9 -36.9211 22486.3
 26 01 2015  22 39  -14.3996 17976.8 -13508.2 -36.9221 22486.4
 26 01 2015  22 40  -14.3997 17976.8 -13508.0 -36.9215 22486.2
 26 01 2015  22 41  -14.3994 17977.3 -13508.0 -36.9210 22486.7
 26 01 2015  22 42  -14.3986 17977.9 -13508.6 -36.9212 22487.5
 26 01 2015  22 43  -14.3977 17978.5 -13508.1 -36.9193 22487.7
 26 01 2015  22 44  -14.3964 17979.0 -13508.6 -36.9194 22488.3
 26 01 2015  22 45  -14.3955 17979.2 -13508.1 -36.9180 22488.2
 26 01 2015  22 46  -14.3945 17979.4 -13508.5 -36.9186 22488.7
 26 01 2015  22 47  -14.3937 17979.5 -13508.2 -36.9178 22488.5
 26 01 2015  22 48  -14.3934 17979.1 -13508.4 -36.9189 22488.3
 26 01 2015  22 49  -14.3937 17978.8 -13508.1 -36.9188 22487.9
 26 01 2015  22 50  -14.3947 17978.5 -13507.9 -36.9188 22487.6
 26 01 2015  22 51  -14.3957 17978.0 -13508.2 -36.9200 22487.3
 26 01 2015  22 52  -14.3969 17977.4 -13508.2 -36.9212 22486.8
 26 01 2015  22 53  -14.3980 17976.7 -13508.0 -36.9217 22486.2
 26 01 2015  22 54  -14.3992 17975.9 -13507.7 -36.9224 22485.3
 26 01 2015  22 55  -14.4004 17975.4 -13508.0 -36.9237 22485.1
 26 01 2015  22 56  -14.4016 17974.8 -13507.9 -36.9245 22484.6
 26 01 2015  22 57  -14.4026 17974.2 -13508.1 -36.9258 22484.2
 26 01 2015  22 58  -14.4032 17973.7 -13508.2 -36.9268 22483.9
 26 01 2015  22 59  -14.4037 17973.4 -13508.4 -36.9275 22483.8
 26 01 2015  23 00  -14.4037 17973.4 -13508.8 -36.9284 22484.0
 26 01 2015  23 01  -14.4038 17973.3 -13508.9 -36.9288 22484.0
 26 01 2015  23 02  -14.4037 17973.3 -13509.2 -36.9295 22484.2
 26 01 2015  23 03  -14.4038 17973.3 -13509.0 -36.9291 22484.0
 26 01 2015  23 04  -14.4037 17973.3 -13509.0 -36.9289 22484.1
 26 01 2015  23 05  -14.4035 17973.3 -13509.2 -36.9294 22484.2
 26 01 2015  23 06  -14.4028 17973.2 -13509.3 -36.9297 22484.2
 26 01 2015  23 07  -14.4017 17973.4 -13510.0 -36.9309 22484.7
 26 01 2015  23 08  -14.4007 17973.7 -13509.9 -36.9301 22484.9
 26 01 2015  23 09  -14.4000 17974.0 -13509.6 -36.9292 22485.0
 26 01 2015  23 10  -14.3991 17974.2 -13509.7 -36.9291 22485.2
 26 01 2015  23 11  -14.3985 17974.6 -13509.6 -36.9282 22485.4
 26 01 2015  23 12  -14.3980 17975.0 -13509.8 -36.9280 22485.9
 26 01 2015  23 13  -14.3973 17975.4 -13510.4 -36.9286 22486.6
 26 01 2015  23 14  -14.3965 17975.7 -13510.5 -36.9284 22486.8
 26 01 2015  23 15  -14.3957 17975.8 -13510.2 -36.9276 22486.8
 26 01 2015  23 16  -14.3947 17975.8 -13510.8 -36.9287 22487.1
 26 01 2015  23 17  -14.3943 17975.8 -13510.1 -36.9275 22486.7
 26 01 2015  23 18  -14.3940 17975.6 -13510.4 -36.9283 22486.7
 26 01 2015  23 19  -14.3940 17975.3 -13510.1 -36.9282 22486.3
 26 01 2015  23 20  -14.3942 17974.9 -13510.4 -36.9294 22486.2
 26 01 2015  23 21  -14.3951 17974.4 -13510.2 -36.9297 22485.6
 26 01 2015  23 22  -14.3961 17974.0 -13510.5 -36.9309 22485.5
 26 01 2015  23 23  -14.3971 17973.6 -13510.8 -36.9322 22485.3
 26 01 2015  23 24  -14.3978 17973.4 -13510.7 -36.9323 22485.2
 26 01 2015  23 25  -14.3985 17973.2 -13511.2 -36.9335 22485.3
 26 01 2015  23 26  -14.3987 17973.0 -13510.7 -36.9330 22484.8
 26 01 2015  23 27  -14.3990 17972.8 -13511.4 -36.9346 22485.1
 26 01 2015  23 28  -14.3994 17972.5 -13511.2 -36.9346 22484.8
 26 01 2015  23 29  -14.4003 17972.1 -13510.9 -36.9347 22484.2
 26 01 2015  23 30  -14.4009 17971.6 -13511.1 -36.9358 22484.0
 26 01 2015  23 31  -14.4019 17971.2 -13511.8 -36.9380 22484.0
 26 01 2015  23 32  -14.4027 17970.7 -13511.9 -36.9389 22483.7
 26 01 2015  23 33  -14.4033 17970.3 -13511.4 -36.9385 22483.1
 26 01 2015  23 34  -14.4035 17969.9 -13511.5 -36.9394 22482.8
 26 01 2015  23 35  -14.4035 17969.5 -13511.6 -36.9400 22482.6
 26 01 2015  23 36  -14.4032 17969.4 -13512.0 -36.9412 22482.7
 26 01 2015  23 37  -14.4025 17969.3 -13512.1 -36.9414 22482.7
 26 01 2015  23 38  -14.4018 17969.3 -13512.2 -36.9416 22482.7
 26 01 2015  23 39  -14.4012 17969.5 -13512.2 -36.9413 22483.0
 26 01 2015  23 40  -14.4009 17969.8 -13512.3 -36.9410 22483.3
 26 01 2015  23 41  -14.4000 17970.3 -13512.6 -36.9409 22483.8
 26 01 2015  23 42  -14.3990 17970.6 -13512.6 -36.9405 22484.1
 26 01 2015  23 43  -14.3981 17971.2 -13512.8 -36.9399 22484.6
 26 01 2015  23 44  -14.3974 17971.6 -13512.6 -36.9389 22484.9
 26 01 2015  23 45  -14.3965 17972.0 -13512.9 -36.9389 22485.3
 26 01 2015  23 46  -14.3962 17972.4 -13513.2 -36.9389 22485.9
 26 01 2015  23 47  -14.3956 17972.9 -13513.1 -36.9380 22486.2
 26 01 2015  23 48  -14.3952 17973.0 -13512.8 -36.9372 22486.1
 26 01 2015  23 49  -14.3949 17972.9 -13512.9 -36.9374 22486.1
 26 01 2015  23 50  -14.3951 17972.8 -13513.1 -36.9380 22486.1
 26 01 2015  23 51  -14.3956 17972.5 -13512.6 -36.9375 22485.6
 26 01 2015  23 52  -14.3960 17972.2 -13513.3 -36.9394 22485.8
 26 01 2015  23 53  -14.3967 17972.0 -13512.8 -36.9388 22485.3
 26 01 2015  23 54  -14.3977 17971.8 -13513.0 -36.9395 22485.3
 26 01 2015  23 55  -14.3985 17971.7 -13513.0 -36.9394 22485.2
 26 01 2015  23 56  -14.3994 17971.9 -13513.3 -36.9398 22485.5
 26 01 2015  23 57  -14.3998 17971.9 -13513.5 -36.9401 22485.6
