SAO MARTINHO DA SERRA EMBRACE-06 <307> 1 Min. Reported data

 DD MM YYYY  HH MM   D(Deg)  H(nT)   Z(nT)   I(Deg)   F(nT)

 03 11 2015  00 00  -14.4650 17953.5 -13560.1 -37.0632 22499.0
 03 11 2015  00 01  -14.4652 17953.4 -13559.8 -37.0629 22498.7
 03 11 2015  00 02  -14.4653 17953.3 -13559.7 -37.0629 22498.6
 03 11 2015  00 03  -14.4654 17953.2 -13559.7 -37.0629 22498.5
 03 11 2015  00 04  -14.4657 17953.1 -13559.4 -37.0625 22498.3
 03 11 2015  00 05  -14.4658 17953.0 -13559.6 -37.0630 22498.3
 03 11 2015  00 06  -14.4663 17952.7 -13560.0 -37.0643 22498.2
 03 11 2015  00 07  -14.4669 17952.4 -13559.3 -37.0634 22497.6
 03 11 2015  00 08  -14.4672 17952.1 -13560.3 -37.0659 22498.0
 03 11 2015  00 09  -14.4680 17951.8 -13559.6 -37.0649 22497.3
 03 11 2015  00 10  -14.4689 17951.4 -13559.4 -37.0652 22496.9
 03 11 2015  00 11  -14.4694 17951.1 -13559.1 -37.0650 22496.5
 03 11 2015  00 12  -14.4695 17951.0 -13560.1 -37.0670 22497.0
 03 11 2015  00 13  -14.4701 17951.0 -13559.4 -37.0658 22496.6
 03 11 2015  00 14  -14.4703 17951.0 -13560.0 -37.0670 22497.0
 03 11 2015  00 15  -14.4705 17951.0 -13559.7 -37.0663 22496.8
 03 11 2015  00 16  -14.4704 17951.2 -13560.0 -37.0667 22497.1
 03 11 2015  00 17  -14.4704 17951.2 -13560.0 -37.0667 22497.1
 03 11 2015  00 18  -14.4704 17951.1 -13560.1 -37.0671 22497.1
 03 11 2015  00 19  -14.4706 17951.1 -13560.1 -37.0670 22497.0
 03 11 2015  00 20  -14.4707 17951.1 -13560.0 -37.0668 22497.1
 03 11 2015  00 21  -14.4710 17951.1 -13560.2 -37.0672 22497.1
 03 11 2015  00 22  -14.4712 17951.0 -13560.3 -37.0674 22497.1
 03 11 2015  00 23  -14.4715 17951.0 -13560.1 -37.0672 22497.0
 03 11 2015  00 24  -14.4714 17951.0 -13560.4 -37.0677 22497.2
 03 11 2015  00 25  -14.4715 17951.1 -13559.9 -37.0666 22497.0
 03 11 2015  00 26  -14.4715 17951.1 -13560.6 -37.0680 22497.4
 03 11 2015  00 27  -14.4716 17951.2 -13560.0 -37.0666 22497.1
 03 11 2015  00 28  -14.4714 17951.4 -13560.5 -37.0674 22497.6
 03 11 2015  00 29  -14.4712 17951.7 -13560.1 -37.0661 22497.6
 03 11 2015  00 30  -14.4711 17951.9 -13560.7 -37.0670 22498.1
 03 11 2015  00 31  -14.4714 17952.0 -13560.1 -37.0656 22497.9
 03 11 2015  00 32  -14.4713 17952.4 -13560.4 -37.0657 22498.3
 03 11 2015  00 33  -14.4710 17952.6 -13560.4 -37.0653 22498.5
 03 11 2015  00 34  -14.4706 17952.9 -13560.7 -37.0654 22498.8
 03 11 2015  00 35  -14.4704 17953.1 -13560.5 -37.0647 22498.9
 03 11 2015  00 36  -14.4702 17953.2 -13560.6 -37.0648 22499.1
 03 11 2015  00 37  -14.4701 17953.3 -13560.5 -37.0645 22499.0
 03 11 2015  00 38  -14.4701 17953.3 -13560.5 -37.0644 22499.1
 03 11 2015  00 39  -14.4703 17953.4 -13560.5 -37.0642 22499.1
 03 11 2015  00 40  -14.4704 17953.4 -13560.6 -37.0643 22499.2
 03 11 2015  00 41  -14.4705 17953.5 -13560.3 -37.0636 22499.1
 03 11 2015  00 42  -14.4707 17953.6 -13560.2 -37.0634 22499.1
 03 11 2015  00 43  -14.4709 17953.6 -13560.5 -37.0640 22499.3
 03 11 2015  00 44  -14.4707 17953.9 -13560.6 -37.0637 22499.6
 03 11 2015  00 45  -14.4708 17954.0 -13560.4 -37.0632 22499.6
 03 11 2015  00 46  -14.4708 17954.2 -13560.5 -37.0632 22499.8
 03 11 2015  00 47  -14.4708 17954.4 -13560.5 -37.0627 22499.9
 03 11 2015  00 48  -14.4709 17954.6 -13560.3 -37.0619 22500.0
 03 11 2015  00 49  -14.4711 17954.8 -13560.3 -37.0617 22500.1
 03 11 2015  00 50  -14.4710 17955.0 -13560.5 -37.0618 22500.5
 03 11 2015  00 51  -14.4709 17955.2 -13560.9 -37.0622 22500.8
 03 11 2015  00 52  -14.4707 17955.4 -13561.1 -37.0623 22501.1
 03 11 2015  00 53  -14.4708 17955.6 -13560.8 -37.0615 22501.1
 03 11 2015  00 54  -14.4705 17955.8 -13560.5 -37.0606 22501.1
 03 11 2015  00 55  -14.4706 17955.8 -13560.4 -37.0605 22501.0
 03 11 2015  00 56  -14.4707 17955.8 -13560.6 -37.0607 22501.1
 03 11 2015  00 57  -14.4710 17955.8 -13560.1 -37.0597 22500.9
 03 11 2015  00 58  -14.4711 17955.8 -13560.5 -37.0605 22501.1
 03 11 2015  00 59  -14.4714 17955.9 -13560.3 -37.0602 22501.0
 03 11 2015  01 00  -14.4716 17955.9 -13560.4 -37.0602 22501.1
 03 11 2015  01 01  -14.4715 17956.2 -13560.5 -37.0600 22501.4
 03 11 2015  01 02  -14.4712 17956.7 -13560.5 -37.0593 22501.8
 03 11 2015  01 03  -14.4712 17957.0 -13560.4 -37.0586 22502.0
 03 11 2015  01 04  -14.4712 17957.3 -13560.5 -37.0583 22502.2
 03 11 2015  01 05  -14.4709 17957.6 -13560.5 -37.0579 22502.5
 03 11 2015  01 06  -14.4707 17957.6 -13560.5 -37.0579 22502.5
 03 11 2015  01 07  -14.4703 17957.8 -13560.4 -37.0573 22502.6
 03 11 2015  01 08  -14.4700 17957.9 -13560.1 -37.0567 22502.5
 03 11 2015  01 09  -14.4695 17957.9 -13560.5 -37.0573 22502.8
 03 11 2015  01 10  -14.4690 17958.1 -13560.4 -37.0568 22502.8
 03 11 2015  01 11  -14.4684 17958.3 -13560.4 -37.0565 22503.0
 03 11 2015  01 12  -14.4682 17958.6 -13560.6 -37.0565 22503.4
 03 11 2015  01 13  -14.4686 17958.8 -13560.4 -37.0558 22503.4
 03 11 2015  01 14  -14.4690 17958.7 -13560.2 -37.0555 22503.2
 03 11 2015  01 15  -14.4690 17958.6 -13560.4 -37.0561 22503.2
 03 11 2015  01 16  -14.4692 17958.3 -13560.2 -37.0561 22502.9
 03 11 2015  01 17  -14.4690 17958.1 -13560.0 -37.0561 22502.6
 03 11 2015  01 18  -14.4688 17957.9 -13560.1 -37.0565 22502.5
 03 11 2015  01 19  -14.4686 17957.7 -13560.1 -37.0569 22502.4
 03 11 2015  01 20  -14.4683 17957.5 -13560.2 -37.0574 22502.2
 03 11 2015  01 21  -14.4680 17957.4 -13560.1 -37.0574 22502.1
 03 11 2015  01 22  -14.4677 17957.4 -13560.2 -37.0576 22502.1
 03 11 2015  01 23  -14.4675 17957.4 -13560.1 -37.0575 22502.1
 03 11 2015  01 24  -14.4676 17957.2 -13560.4 -37.0582 22502.1
 03 11 2015  01 25  -14.4676 17957.1 -13560.3 -37.0582 22502.0
 03 11 2015  01 26  -14.4676 17957.0 -13560.6 -37.0590 22502.1
 03 11 2015  01 27  -14.4675 17957.0 -13560.4 -37.0584 22502.0
 03 11 2015  01 28  -14.4673 17957.1 -13560.8 -37.0592 22502.3
 03 11 2015  01 29  -14.4673 17957.3 -13560.5 -37.0584 22502.2
 03 11 2015  01 30  -14.4675 17957.2 -13560.8 -37.0589 22502.3
 03 11 2015  01 31  -14.4674 17957.4 -13560.6 -37.0584 22502.4
 03 11 2015  01 32  -14.4670 17957.5 -13560.7 -37.0584 22502.6
 03 11 2015  01 33  -14.4661 17958.0 -13560.8 -37.0579 22503.0
 03 11 2015  01 34  -14.4648 17958.8 -13561.0 -37.0570 22503.8
 03 11 2015  01 35  -14.4631 17959.7 -13561.2 -37.0560 22504.6
 03 11 2015  01 36  -14.4604 17962.3 -13561.6 -37.0529 22506.9
 03 11 2015  01 37  -14.4584 17966.4 -13562.2 -37.0477 22510.5
 03 11 2015  01 38  -14.4553 17971.6 -13562.8 -37.0411 22515.1
 03 11 2015  01 39  -14.4528 17975.7 -13563.0 -37.0351 22518.4
 03 11 2015  01 40  -14.4510 17977.5 -13562.3 -37.0310 22519.4
 03 11 2015  01 41  -14.4500 17976.9 -13561.3 -37.0299 22518.4
 03 11 2015  01 42  -14.4498 17975.2 -13559.8 -37.0295 22516.1
 03 11 2015  01 43  -14.4496 17973.4 -13560.0 -37.0327 22514.8
 03 11 2015  01 44  -14.4496 17971.4 -13559.3 -37.0343 22512.8
 03 11 2015  01 45  -14.4498 17969.5 -13558.8 -37.0360 22511.0
 03 11 2015  01 46  -14.4500 17968.1 -13559.1 -37.0389 22510.0
 03 11 2015  01 47  -14.4501 17967.5 -13559.5 -37.0405 22509.8
 03 11 2015  01 48  -14.4494 17968.0 -13559.6 -37.0400 22510.2
 03 11 2015  01 49  -14.4486 17969.0 -13559.7 -37.0389 22511.1
 03 11 2015  01 50  -14.4472 17970.5 -13560.6 -37.0384 22512.8
 03 11 2015  01 51  -14.4461 17971.7 -13560.1 -37.0353 22513.5
 03 11 2015  01 52  -14.4452 17972.7 -13560.6 -37.0349 22514.6
 03 11 2015  01 53  -14.4450 17972.9 -13560.1 -37.0334 22514.5
 03 11 2015  01 54  -14.4447 17974.6 -13560.4 -37.0317 22516.0
 03 11 2015  01 55  -14.4450 17971.5 -13559.8 -37.0351 22513.1
 03 11 2015  01 56  -14.4449 17973.5 -13560.5 -37.0333 22515.2
 03 11 2015  01 57  -14.4449 17972.8 -13560.5 -37.0345 22514.6
 03 11 2015  01 58  -14.4442 17971.6 -13560.0 -37.0353 22513.3
 03 11 2015  01 59  -14.4453 17973.4 -13560.5 -37.0335 22515.1
 03 11 2015  02 00  -14.4450 17970.3 -13560.1 -37.0376 22512.4
 03 11 2015  02 01  -14.4458 17973.3 -13560.8 -37.0344 22515.3
 03 11 2015  02 02  -14.4467 17970.7 -13560.0 -37.0367 22512.7
 03 11 2015  02 03  -14.4471 17972.2 -13560.6 -37.0356 22514.1
 03 11 2015  02 04  -14.4482 17970.7 -13560.3 -37.0373 22512.9
 03 11 2015  02 05  -14.4490 17970.2 -13559.9 -37.0371 22512.2
 03 11 2015  02 06  -14.4491 17969.2 -13560.0 -37.0391 22511.5
 03 11 2015  02 07  -14.4506 17968.4 -13560.5 -37.0413 22511.1
 03 11 2015  02 08  -14.4515 17967.8 -13560.2 -37.0416 22510.5
 03 11 2015  02 09  -14.4525 17966.9 -13560.5 -37.0436 22509.9
 03 11 2015  02 10  -14.4531 17966.1 -13560.2 -37.0441 22509.1
 03 11 2015  02 11  -14.4533 17965.7 -13560.8 -37.0459 22509.2
 03 11 2015  02 12  -14.4538 17964.9 -13560.4 -37.0465 22508.3
 03 11 2015  02 13  -14.4540 17965.6 -13561.1 -37.0468 22509.3
 03 11 2015  02 14  -14.4557 17964.4 -13561.1 -37.0485 22508.3
 03 11 2015  02 15  -14.4564 17964.8 -13561.2 -37.0482 22508.6
 03 11 2015  02 16  -14.4571 17963.7 -13561.4 -37.0502 22507.9
 03 11 2015  02 17  -14.4576 17963.6 -13561.4 -37.0505 22507.8
 03 11 2015  02 18  -14.4582 17963.2 -13561.3 -37.0509 22507.5
 03 11 2015  02 19  -14.4587 17962.9 -13561.0 -37.0507 22507.0
 03 11 2015  02 20  -14.4589 17962.7 -13561.3 -37.0516 22507.0
 03 11 2015  02 21  -14.4593 17962.2 -13561.2 -37.0522 22506.6
 03 11 2015  02 22  -14.4593 17960.9 -13561.8 -37.0555 22505.9
 03 11 2015  02 23  -14.4594 17961.0 -13561.6 -37.0549 22505.9
 03 11 2015  02 24  -14.4593 17960.1 -13561.5 -37.0560 22505.2
 03 11 2015  02 25  -14.4595 17960.8 -13561.9 -37.0559 22505.9
 03 11 2015  02 26  -14.4601 17959.9 -13562.4 -37.0581 22505.5
 03 11 2015  02 27  -14.4611 17958.6 -13561.9 -37.0592 22504.2
 03 11 2015  02 28  -14.4617 17957.0 -13561.9 -37.0615 22502.9
 03 11 2015  02 29  -14.4629 17955.9 -13561.9 -37.0634 22502.0
 03 11 2015  02 30  -14.4640 17955.0 -13562.0 -37.0649 22501.4
 03 11 2015  02 31  -14.4652 17954.5 -13562.0 -37.0656 22501.0
 03 11 2015  02 32  -14.4662 17954.4 -13562.5 -37.0667 22501.1
 03 11 2015  02 33  -14.4670 17954.6 -13562.6 -37.0666 22501.4
 03 11 2015  02 34  -14.4674 17954.7 -13562.9 -37.0672 22501.6
 03 11 2015  02 35  -14.4675 17955.6 -13563.8 -37.0676 22502.9
 03 11 2015  02 36  -14.4679 17956.6 -13563.5 -37.0656 22503.5
 03 11 2015  02 37  -14.4684 17957.3 -13563.1 -37.0635 22503.8
 03 11 2015  02 38  -14.4683 17957.2 -13564.0 -37.0655 22504.3
 03 11 2015  02 39  -14.4682 17956.8 -13563.9 -37.0660 22503.9
 03 11 2015  02 40  -14.4688 17956.3 -13563.5 -37.0660 22503.2
 03 11 2015  02 41  -14.4690 17956.3 -13563.3 -37.0654 22503.1
 03 11 2015  02 42  -14.4692 17956.8 -13563.4 -37.0650 22503.6
 03 11 2015  02 43  -14.4699 17957.2 -13563.0 -37.0636 22503.7
 03 11 2015  02 44  -14.4696 17957.8 -13563.7 -37.0641 22504.6
 03 11 2015  02 45  -14.4690 17958.6 -13563.6 -37.0625 22505.2
 03 11 2015  02 46  -14.4686 17959.1 -13563.9 -37.0625 22505.8
 03 11 2015  02 47  -14.4681 17959.3 -13564.2 -37.0628 22506.1
 03 11 2015  02 48  -14.4682 17959.0 -13563.5 -37.0617 22505.5
 03 11 2015  02 49  -14.4684 17958.5 -13563.7 -37.0630 22505.1
 03 11 2015  02 50  -14.4686 17958.1 -13563.5 -37.0631 22504.7
 03 11 2015  02 51  -14.4682 17958.3 -13563.4 -37.0626 22504.8
 03 11 2015  02 52  -14.4680 17958.8 -13563.7 -37.0625 22505.4
 03 11 2015  02 53  -14.4670 17958.9 -13563.3 -37.0615 22505.3
 03 11 2015  02 54  -14.4655 17959.1 -13563.8 -37.0622 22505.7
 03 11 2015  02 55  -14.4648 17959.1 -13563.6 -37.0619 22505.6
 03 11 2015  02 56  -14.4645 17958.9 -13564.2 -37.0633 22505.7
 03 11 2015  02 57  -14.4639 17958.9 -13564.0 -37.0630 22505.6
 03 11 2015  02 58  -14.4644 17959.0 -13564.1 -37.0631 22505.7
 03 11 2015  02 59  -14.4657 17958.8 -13563.7 -37.0624 22505.4
 03 11 2015  03 00  -14.4673 17958.3 -13563.6 -37.0630 22504.9
 03 11 2015  03 01  -14.4680 17957.5 -13564.0 -37.0652 22504.5
 03 11 2015  03 02  -14.4687 17957.0 -13563.4 -37.0648 22503.8
 03 11 2015  03 03  -14.4688 17957.4 -13563.9 -37.0649 22504.4
 03 11 2015  03 04  -14.4696 17957.3 -13564.0 -37.0652 22504.4
 03 11 2015  03 05  -14.4697 17957.1 -13564.5 -37.0666 22504.5
 03 11 2015  03 06  -14.4699 17956.6 -13564.4 -37.0675 22504.0
 03 11 2015  03 07  -14.4703 17955.9 -13563.7 -37.0669 22503.1
 03 11 2015  03 08  -14.4709 17955.6 -13565.1 -37.0704 22503.7
 03 11 2015  03 09  -14.4715 17955.5 -13565.2 -37.0705 22503.6
 03 11 2015  03 10  -14.4715 17955.8 -13564.1 -37.0679 22503.3
 03 11 2015  03 11  -14.4719 17956.1 -13565.1 -37.0695 22504.1
 03 11 2015  03 12  -14.4730 17955.8 -13564.7 -37.0691 22503.6
 03 11 2015  03 13  -14.4742 17955.1 -13564.4 -37.0696 22502.9
 03 11 2015  03 14  -14.4755 17954.5 -13564.9 -37.0715 22502.7
 03 11 2015  03 15  -14.4770 17954.2 -13564.6 -37.0712 22502.3
 03 11 2015  03 16  -14.4780 17953.8 -13565.1 -37.0731 22502.2
 03 11 2015  03 17  -14.4798 17953.4 -13564.7 -37.0727 22501.6
 03 11 2015  03 18  -14.4818 17953.0 -13565.0 -37.0740 22501.6
 03 11 2015  03 19  -14.4839 17952.7 -13565.2 -37.0749 22501.4
 03 11 2015  03 20  -14.4856 17951.9 -13564.9 -37.0755 22500.6
 03 11 2015  03 21  -14.4870 17951.4 -13565.0 -37.0765 22500.2
 03 11 2015  03 22  -14.4887 17951.3 -13565.2 -37.0770 22500.3
 03 11 2015  03 23  -14.4904 17951.1 -13565.1 -37.0771 22500.1
 03 11 2015  03 24  -14.4923 17950.4 -13565.7 -37.0794 22499.9
 03 11 2015  03 25  -14.4947 17950.1 -13565.4 -37.0793 22499.5
 03 11 2015  03 26  -14.4963 17950.1 -13566.1 -37.0808 22499.9
 03 11 2015  03 27  -14.4980 17949.7 -13565.6 -37.0803 22499.2
 03 11 2015  03 28  -14.4997 17949.8 -13566.0 -37.0809 22499.6
 03 11 2015  03 29  -14.5016 17950.0 -13565.8 -37.0803 22499.6
 03 11 2015  03 30  -14.5033 17950.7 -13566.0 -37.0796 22500.3
 03 11 2015  03 31  -14.5047 17950.8 -13566.1 -37.0796 22500.5
 03 11 2015  03 32  -14.5063 17951.1 -13565.5 -37.0780 22500.3
 03 11 2015  03 33  -14.5080 17950.6 -13565.6 -37.0788 22500.0
 03 11 2015  03 34  -14.5101 17948.6 -13565.4 -37.0815 22498.3
 03 11 2015  03 35  -14.5130 17946.2 -13565.1 -37.0846 22496.2
 03 11 2015  03 36  -14.5147 17944.0 -13565.3 -37.0884 22494.5
 03 11 2015  03 37  -14.5171 17942.6 -13564.5 -37.0890 22493.0
 03 11 2015  03 38  -14.5197 17942.2 -13565.0 -37.0906 22493.0
 03 11 2015  03 39  -14.5212 17942.2 -13566.2 -37.0930 22493.7
 03 11 2015  03 40  -14.5217 17943.3 -13566.7 -37.0924 22494.8
 03 11 2015  03 41  -14.5227 17944.9 -13567.2 -37.0908 22496.4
 03 11 2015  03 42  -14.5236 17945.7 -13566.6 -37.0884 22496.7
 03 11 2015  03 43  -14.5241 17946.1 -13566.7 -37.0880 22497.0
 03 11 2015  03 44  -14.5242 17946.5 -13566.3 -37.0867 22497.1
 03 11 2015  03 45  -14.5243 17946.6 -13566.8 -37.0876 22497.5
 03 11 2015  03 46  -14.5248 17946.9 -13566.6 -37.0868 22497.7
 03 11 2015  03 47  -14.5248 17947.4 -13566.4 -37.0856 22497.9
 03 11 2015  03 48  -14.5242 17948.3 -13567.3 -37.0859 22499.2
 03 11 2015  03 49  -14.5243 17949.5 -13566.2 -37.0818 22499.5
 03 11 2015  03 50  -14.5240 17951.8 -13566.6 -37.0791 22501.6
 03 11 2015  03 51  -14.5242 17953.1 -13566.9 -37.0779 22502.8
 03 11 2015  03 52  -14.5240 17953.5 -13567.6 -37.0784 22503.5
 03 11 2015  03 53  -14.5237 17953.3 -13567.3 -37.0782 22503.1
 03 11 2015  03 54  -14.5241 17952.7 -13565.9 -37.0762 22501.9
 03 11 2015  03 55  -14.5243 17953.0 -13565.6 -37.0751 22501.9
 03 11 2015  03 56  -14.5236 17953.3 -13566.1 -37.0759 22502.4
 03 11 2015  03 57  -14.5238 17953.4 -13565.6 -37.0747 22502.3
 03 11 2015  03 58  -14.5240 17953.9 -13566.8 -37.0764 22503.4
 03 11 2015  03 59  -14.5245 17954.0 -13565.7 -37.0739 22502.7
 03 11 2015  04 00  -14.5252 17954.0 -13565.4 -37.0733 22502.6
 03 11 2015  04 01  -14.5251 17954.4 -13566.4 -37.0748 22503.5
 03 11 2015  04 02  -14.5255 17954.9 -13565.6 -37.0725 22503.4
 03 11 2015  04 03  -14.5257 17955.1 -13565.8 -37.0724 22503.7
 03 11 2015  04 04  -14.5266 17955.4 -13565.8 -37.0721 22503.9
 03 11 2015  04 05  -14.5278 17955.4 -13565.9 -37.0723 22504.0
 03 11 2015  04 06  -14.5293 17954.7 -13565.7 -37.0728 22503.3
 03 11 2015  04 07  -14.5304 17954.7 -13565.9 -37.0733 22503.5
 03 11 2015  04 08  -14.5313 17955.8 -13565.8 -37.0714 22504.3
 03 11 2015  04 09  -14.5318 17956.0 -13566.0 -37.0716 22504.5
 03 11 2015  04 10  -14.5325 17956.1 -13565.6 -37.0704 22504.3
 03 11 2015  04 11  -14.5329 17957.1 -13566.1 -37.0699 22505.4
 03 11 2015  04 12  -14.5327 17957.5 -13565.9 -37.0690 22505.7
 03 11 2015  04 13  -14.5328 17957.8 -13566.0 -37.0686 22506.0
 03 11 2015  04 14  -14.5332 17959.2 -13565.7 -37.0659 22506.9
 03 11 2015  04 15  -14.5329 17960.5 -13566.2 -37.0648 22508.3
 03 11 2015  04 16  -14.5333 17961.2 -13566.3 -37.0640 22508.9
 03 11 2015  04 17  -14.5336 17961.5 -13565.4 -37.0619 22508.6
 03 11 2015  04 18  -14.5342 17961.2 -13565.2 -37.0619 22508.3
 03 11 2015  04 19  -14.5347 17960.8 -13565.7 -37.0635 22508.1
 03 11 2015  04 20  -14.5352 17960.8 -13565.0 -37.0620 22507.8
 03 11 2015  04 21  -14.5354 17962.9 -13564.9 -37.0587 22509.4
 03 11 2015  04 22  -14.5347 17964.4 -13565.9 -37.0584 22511.2
 03 11 2015  04 23  -14.5345 17965.0 -13565.8 -37.0571 22511.6
 03 11 2015  04 24  -14.5349 17965.3 -13565.5 -37.0562 22511.7
 03 11 2015  04 25  -14.5354 17965.0 -13565.4 -37.0564 22511.4
 03 11 2015  04 26  -14.5361 17964.3 -13565.3 -37.0574 22510.8
 03 11 2015  04 27  -14.5370 17963.4 -13565.1 -37.0583 22509.8
 03 11 2015  04 28  -14.5381 17963.0 -13564.3 -37.0574 22509.1
 03 11 2015  04 29  -14.5387 17962.6 -13565.0 -37.0593 22509.3
 03 11 2015  04 30  -14.5388 17963.7 -13564.6 -37.0569 22509.8
 03 11 2015  04 31  -14.5381 17966.2 -13565.1 -37.0539 22512.1
 03 11 2015  04 32  -14.5360 17967.4 -13565.4 -37.0528 22513.3
 03 11 2015  04 33  -14.5351 17968.1 -13565.6 -37.0520 22513.9
 03 11 2015  04 34  -14.5344 17967.8 -13565.0 -37.0513 22513.3
 03 11 2015  04 35  -14.5339 17966.6 -13565.0 -37.0530 22512.4
 03 11 2015  04 36  -14.5342 17965.8 -13564.5 -37.0533 22511.5
 03 11 2015  04 37  -14.5342 17964.7 -13564.4 -37.0550 22510.5
 03 11 2015  04 38  -14.5351 17964.2 -13564.2 -37.0553 22510.0
 03 11 2015  04 39  -14.5357 17963.3 -13564.4 -37.0570 22509.5
 03 11 2015  04 40  -14.5369 17962.7 -13564.4 -37.0579 22508.9
 03 11 2015  04 41  -14.5373 17962.4 -13564.4 -37.0583 22508.7
 03 11 2015  04 42  -14.5373 17962.2 -13564.6 -37.0591 22508.6
 03 11 2015  04 43  -14.5371 17962.2 -13564.9 -37.0597 22508.8
 03 11 2015  04 44  -14.5371 17962.0 -13564.7 -37.0596 22508.6
 03 11 2015  04 45  -14.5371 17960.8 -13564.5 -37.0610 22507.5
 03 11 2015  04 46  -14.5372 17960.0 -13564.7 -37.0625 22507.0
 03 11 2015  04 47  -14.5374 17959.6 -13565.4 -37.0646 22507.1
 03 11 2015  04 48  -14.5377 17959.7 -13564.7 -37.0631 22506.7
 03 11 2015  04 49  -14.5374 17960.0 -13565.9 -37.0651 22507.7
 03 11 2015  04 50  -14.5376 17960.1 -13565.3 -37.0637 22507.4
 03 11 2015  04 51  -14.5386 17959.8 -13565.5 -37.0646 22507.3
 03 11 2015  04 52  -14.5390 17959.8 -13565.5 -37.0647 22507.2
 03 11 2015  04 53  -14.5402 17959.2 -13564.9 -37.0642 22506.4
 03 11 2015  04 54  -14.5413 17958.8 -13564.9 -37.0648 22506.1
 03 11 2015  04 55  -14.5416 17959.1 -13565.5 -37.0657 22506.7
 03 11 2015  04 56  -14.5426 17959.6 -13566.4 -37.0669 22507.6
 03 11 2015  04 57  -14.5436 17959.6 -13565.2 -37.0642 22506.9
 03 11 2015  04 58  -14.5448 17959.7 -13565.6 -37.0650 22507.2
 03 11 2015  04 59  -14.5463 17959.1 -13565.2 -37.0651 22506.5
 03 11 2015  05 00  -14.5473 17959.2 -13565.3 -37.0652 22506.7
 03 11 2015  05 01  -14.5476 17958.8 -13565.4 -37.0661 22506.4
 03 11 2015  05 02  -14.5493 17959.4 -13565.9 -37.0661 22507.1
 03 11 2015  05 03  -14.5501 17959.3 -13566.3 -37.0670 22507.3
 03 11 2015  05 04  -14.5516 17958.8 -13566.1 -37.0672 22506.8
 03 11 2015  05 05  -14.5533 17959.6 -13566.1 -37.0662 22507.5
 03 11 2015  05 06  -14.5531 17959.0 -13565.6 -37.0660 22506.7
 03 11 2015  05 07  -14.5535 17957.1 -13565.5 -37.0687 22505.1
 03 11 2015  05 08  -14.5566 17955.0 -13564.9 -37.0706 22503.1
 03 11 2015  05 09  -14.5586 17954.2 -13566.0 -37.0743 22503.1
 03 11 2015  05 10  -14.5594 17951.4 -13565.2 -37.0769 22500.4
 03 11 2015  05 11  -14.5615 17949.3 -13564.5 -37.0787 22498.3
 03 11 2015  05 12  -14.5629 17948.2 -13565.8 -37.0830 22498.2
 03 11 2015  05 13  -14.5638 17948.1 -13565.6 -37.0827 22497.9
 03 11 2015  05 14  -14.5659 17947.8 -13566.2 -37.0844 22498.1
 03 11 2015  05 15  -14.5665 17949.6 -13567.2 -37.0838 22500.1
 03 11 2015  05 16  -14.5654 17950.6 -13567.6 -37.0830 22501.1
 03 11 2015  05 17  -14.5649 17951.3 -13567.0 -37.0807 22501.4
 03 11 2015  05 18  -14.5658 17951.4 -13567.0 -37.0805 22501.5
 03 11 2015  05 19  -14.5666 17951.6 -13567.7 -37.0815 22502.1
 03 11 2015  05 20  -14.5689 17951.6 -13566.8 -37.0799 22501.5
 03 11 2015  05 21  -14.5695 17952.4 -13567.5 -37.0801 22502.6
 03 11 2015  05 22  -14.5700 17952.6 -13567.2 -37.0790 22502.5
 03 11 2015  05 23  -14.5716 17952.5 -13567.3 -37.0794 22502.6
 03 11 2015  05 24  -14.5714 17953.8 -13567.1 -37.0771 22503.5
 03 11 2015  05 25  -14.5711 17955.0 -13567.6 -37.0761 22504.7
 03 11 2015  05 26  -14.5701 17955.3 -13566.9 -37.0744 22504.5
 03 11 2015  05 27  -14.5697 17955.8 -13566.9 -37.0736 22505.0
 03 11 2015  05 28  -14.5704 17955.4 -13566.8 -37.0739 22504.5
 03 11 2015  05 29  -14.5702 17955.4 -13566.6 -37.0735 22504.4
 03 11 2015  05 30  -14.5713 17955.4 -13566.0 -37.0723 22504.1
 03 11 2015  05 31  -14.5714 17955.4 -13566.1 -37.0727 22504.1
 03 11 2015  05 32  -14.5719 17955.5 -13566.7 -37.0736 22504.6
 03 11 2015  05 33  -14.5719 17955.8 -13566.3 -37.0723 22504.6
 03 11 2015  05 34  -14.5715 17956.5 -13567.0 -37.0727 22505.6
 03 11 2015  05 35  -14.5710 17957.1 -13566.5 -37.0709 22505.7
 03 11 2015  05 36  -14.5701 17957.9 -13566.1 -37.0687 22506.1
 03 11 2015  05 37  -14.5686 17959.4 -13566.8 -37.0678 22507.8
 03 11 2015  05 38  -14.5672 17961.5 -13566.7 -37.0644 22509.4
 03 11 2015  05 39  -14.5661 17963.7 -13567.1 -37.0619 22511.4
 03 11 2015  05 40  -14.5652 17963.9 -13566.8 -37.0609 22511.3
 03 11 2015  05 41  -14.5650 17963.8 -13566.1 -37.0597 22510.8
 03 11 2015  05 42  -14.5648 17963.8 -13566.1 -37.0597 22510.8
 03 11 2015  05 43  -14.5642 17964.1 -13566.3 -37.0597 22511.1
 03 11 2015  05 44  -14.5635 17963.7 -13566.3 -37.0603 22510.8
 03 11 2015  05 45  -14.5619 17964.1 -13566.3 -37.0597 22511.2
 03 11 2015  05 46  -14.5602 17964.1 -13565.6 -37.0583 22510.8
 03 11 2015  05 47  -14.5589 17964.5 -13565.7 -37.0579 22511.1
 03 11 2015  05 48  -14.5578 17964.2 -13565.4 -37.0577 22510.8
 03 11 2015  05 49  -14.5572 17964.3 -13565.6 -37.0579 22510.9
 03 11 2015  05 50  -14.5565 17964.8 -13565.8 -37.0575 22511.5
 03 11 2015  05 51  -14.5543 17965.6 -13565.8 -37.0563 22512.1
 03 11 2015  05 52  -14.5546 17965.8 -13565.6 -37.0555 22512.1
 03 11 2015  05 53  -14.5541 17965.5 -13565.3 -37.0556 22511.7
 03 11 2015  05 54  -14.5539 17964.9 -13565.4 -37.0566 22511.2
 03 11 2015  05 55  -14.5536 17964.2 -13564.8 -37.0564 22510.3
 03 11 2015  05 56  -14.5529 17964.4 -13565.4 -37.0575 22510.9
 03 11 2015  05 57  -14.5525 17964.7 -13565.0 -37.0560 22510.9
 03 11 2015  05 58  -14.5521 17964.3 -13565.1 -37.0570 22510.6
 03 11 2015  05 59  -14.5517 17965.8 -13565.4 -37.0553 22512.0
 03 11 2015  06 00  -14.5501 17966.7 -13566.2 -37.0556 22513.2
 03 11 2015  06 01  -14.5491 17966.6 -13564.9 -37.0530 22512.3
 03 11 2015  06 02  -14.5494 17965.8 -13565.5 -37.0553 22512.1
 03 11 2015  06 03  -14.5500 17965.0 -13564.5 -37.0547 22510.8
 03 11 2015  06 04  -14.5502 17964.5 -13564.9 -37.0561 22510.7
 03 11 2015  06 05  -14.5504 17963.5 -13564.5 -37.0568 22509.6
 03 11 2015  06 06  -14.5503 17962.2 -13564.9 -37.0596 22508.8
 03 11 2015  06 07  -14.5501 17963.3 -13565.1 -37.0583 22509.8
 03 11 2015  06 08  -14.5487 17965.6 -13565.3 -37.0553 22511.8
 03 11 2015  06 09  -14.5467 17967.2 -13566.0 -37.0543 22513.5
 03 11 2015  06 10  -14.5452 17969.5 -13566.2 -37.0513 22515.4
 03 11 2015  06 11  -14.5435 17971.6 -13566.2 -37.0480 22517.1
 03 11 2015  06 12  -14.5414 17972.7 -13566.0 -37.0459 22517.9
 03 11 2015  06 13  -14.5391 17973.9 -13566.2 -37.0445 22518.9
 03 11 2015  06 14  -14.5376 17974.4 -13565.9 -37.0430 22519.2
 03 11 2015  06 15  -14.5360 17974.8 -13565.8 -37.0422 22519.4
 03 11 2015  06 16  -14.5354 17974.7 -13565.2 -37.0411 22519.0
 03 11 2015  06 17  -14.5344 17974.6 -13564.9 -37.0408 22518.8
 03 11 2015  06 18  -14.5331 17975.1 -13564.9 -37.0399 22519.1
 03 11 2015  06 19  -14.5317 17975.7 -13565.2 -37.0396 22519.7
 03 11 2015  06 20  -14.5303 17976.6 -13565.5 -37.0390 22520.7
 03 11 2015  06 21  -14.5293 17977.8 -13565.1 -37.0362 22521.4
 03 11 2015  06 22  -14.5282 17979.7 -13564.7 -37.0325 22522.6
 03 11 2015  06 23  -14.5263 17982.6 -13565.1 -37.0289 22525.2
 03 11 2015  06 24  -14.5247 17983.9 -13565.3 -37.0272 22526.4
 03 11 2015  06 25  -14.5238 17984.2 -13565.2 -37.0265 22526.5
 03 11 2015  06 26  -14.5239 17983.9 -13564.4 -37.0255 22525.9
 03 11 2015  06 27  -14.5240 17983.7 -13563.6 -37.0242 22525.2
 03 11 2015  06 28  -14.5241 17984.0 -13563.9 -37.0242 22525.6
 03 11 2015  06 29  -14.5247 17984.6 -13563.8 -37.0232 22526.1
 03 11 2015  06 30  -14.5248 17986.3 -13564.0 -37.0209 22527.5
 03 11 2015  06 31  -14.5246 17988.2 -13564.5 -37.0190 22529.4
 03 11 2015  06 32  -14.5250 17989.7 -13564.2 -37.0162 22530.3
 03 11 2015  06 33  -14.5255 17990.3 -13563.9 -37.0146 22530.7
 03 11 2015  06 34  -14.5265 17990.4 -13563.7 -37.0140 22530.6
 03 11 2015  06 35  -14.5271 17990.7 -13563.6 -37.0134 22530.8
 03 11 2015  06 36  -14.5274 17991.2 -13563.6 -37.0127 22531.1
 03 11 2015  06 37  -14.5273 17990.7 -13562.9 -37.0119 22530.4
 03 11 2015  06 38  -14.5281 17991.4 -13562.9 -37.0109 22530.9
 03 11 2015  06 39  -14.5275 17993.8 -13563.3 -37.0079 22533.1
 03 11 2015  06 40  -14.5272 17993.1 -13562.8 -37.0082 22532.2
 03 11 2015  06 41  -14.5283 17992.6 -13562.6 -37.0086 22531.7
 03 11 2015  06 42  -14.5297 17994.0 -13562.8 -37.0067 22532.9
 03 11 2015  06 43  -14.5305 17994.9 -13562.8 -37.0053 22533.7
 03 11 2015  06 44  -14.5318 17995.6 -13562.5 -37.0037 22534.0
 03 11 2015  06 45  -14.5320 17996.9 -13563.0 -37.0027 22535.4
 03 11 2015  06 46  -14.5318 17996.3 -13562.5 -37.0027 22534.6
 03 11 2015  06 47  -14.5329 17994.3 -13562.1 -37.0050 22532.7
 03 11 2015  06 48  -14.5349 17992.6 -13561.5 -37.0062 22531.1
 03 11 2015  06 49  -14.5359 17990.5 -13560.7 -37.0078 22528.9
 03 11 2015  06 50  -14.5391 17985.9 -13559.9 -37.0133 22524.8
 03 11 2015  06 51  -14.5443 17983.8 -13560.4 -37.0174 22523.4
 03 11 2015  06 52  -14.5448 17986.7 -13561.5 -37.0153 22526.3
 03 11 2015  06 53  -14.5422 17988.6 -13562.4 -37.0141 22528.4
 03 11 2015  06 54  -14.5402 17987.4 -13562.0 -37.0152 22527.2
 03 11 2015  06 55  -14.5378 17984.6 -13561.5 -37.0185 22524.6
 03 11 2015  06 56  -14.5392 17982.2 -13561.2 -37.0215 22522.5
 03 11 2015  06 57  -14.5403 17983.0 -13561.9 -37.0216 22523.6
 03 11 2015  06 58  -14.5404 17984.6 -13562.4 -37.0202 22525.2
 03 11 2015  06 59  -14.5385 17985.8 -13562.9 -37.0195 22526.5
 03 11 2015  07 00  -14.5358 17985.4 -13562.7 -37.0197 22526.0
 03 11 2015  07 01  -14.5348 17985.2 -13562.7 -37.0201 22525.8
 03 11 2015  07 02  -14.5338 17984.9 -13562.7 -37.0204 22525.6
 03 11 2015  07 03  -14.5314 17985.4 -13562.8 -37.0199 22526.1
 03 11 2015  07 04  -14.5308 17987.9 -13563.6 -37.0176 22528.6
 03 11 2015  07 05  -14.5318 17991.2 -13564.3 -37.0139 22531.6
 03 11 2015  07 06  -14.5316 17992.1 -13564.0 -37.0122 22532.1
 03 11 2015  07 07  -14.5341 17989.5 -13562.9 -37.0139 22529.4
 03 11 2015  07 08  -14.5398 17987.4 -13562.2 -37.0157 22527.3
 03 11 2015  07 09  -14.5455 17988.1 -13562.5 -37.0151 22528.0
 03 11 2015  07 10  -14.5460 17988.4 -13562.5 -37.0146 22528.3
 03 11 2015  07 11  -14.5509 17987.6 -13562.1 -37.0151 22527.5
 03 11 2015  07 12  -14.5555 17989.2 -13562.2 -37.0130 22528.7
 03 11 2015  07 13  -14.5594 17990.6 -13562.8 -37.0119 22530.2
 03 11 2015  07 14  -14.5613 17991.5 -13562.3 -37.0095 22530.6
 03 11 2015  07 15  -14.5634 17991.3 -13562.1 -37.0095 22530.4
 03 11 2015  07 16  -14.5625 17990.7 -13561.7 -37.0095 22529.6
 03 11 2015  07 17  -14.5635 17989.7 -13561.5 -37.0106 22528.7
 03 11 2015  07 18  -14.5627 17989.0 -13561.4 -37.0115 22528.1
 03 11 2015  07 19  -14.5635 17989.4 -13561.9 -37.0118 22528.7
 03 11 2015  07 20  -14.5634 17992.0 -13562.2 -37.0086 22530.9
 03 11 2015  07 21  -14.5625 17995.4 -13562.8 -37.0046 22534.1
 03 11 2015  07 22  -14.5621 17996.4 -13562.3 -37.0021 22534.6
 03 11 2015  07 23  -14.5611 17995.1 -13561.8 -37.0030 22533.2
 03 11 2015  07 24  -14.5633 17993.1 -13560.9 -37.0042 22531.1
 03 11 2015  07 25  -14.5652 17993.2 -13561.0 -37.0042 22531.2
 03 11 2015  07 26  -14.5688 17996.6 -13561.6 -37.0003 22534.3
 03 11 2015  07 27  -14.5661 18001.1 -13562.5 -36.9953 22538.5
 03 11 2015  07 28  -14.5655 18003.9 -13562.2 -36.9903 22540.5
 03 11 2015  07 29  -14.5597 18006.2 -13562.1 -36.9866 22542.2
 03 11 2015  07 30  -14.5622 18002.1 -13560.4 -36.9895 22538.0
 03 11 2015  07 31  -14.5653 18002.1 -13560.2 -36.9891 22537.9
 03 11 2015  07 32  -14.5664 18003.1 -13560.3 -36.9876 22538.7
 03 11 2015  07 33  -14.5640 18001.4 -13559.5 -36.9887 22536.9
 03 11 2015  07 34  -14.5668 18003.4 -13559.9 -36.9865 22538.7
 03 11 2015  07 35  -14.5680 18010.5 -13561.1 -36.9780 22545.1
 03 11 2015  07 36  -14.5657 18018.6 -13562.7 -36.9688 22552.5
 03 11 2015  07 37  -14.5610 18021.6 -13562.2 -36.9634 22554.6
 03 11 2015  07 38  -14.5629 18021.3 -13560.5 -36.9602 22553.3
 03 11 2015  07 39  -14.5651 18021.1 -13560.1 -36.9597 22553.0
 03 11 2015  07 40  -14.5657 18019.6 -13558.9 -36.9597 22551.1
 03 11 2015  07 41  -14.5670 18019.1 -13558.8 -36.9603 22550.6
 03 11 2015  07 42  -14.5688 18019.7 -13558.3 -36.9583 22550.7
 03 11 2015  07 43  -14.5695 18018.9 -13557.9 -36.9588 22549.9
 03 11 2015  07 44  -14.5694 18017.7 -13557.9 -36.9605 22548.9
 03 11 2015  07 45  -14.5711 18014.7 -13556.5 -36.9622 22545.7
 03 11 2015  07 46  -14.5717 18013.1 -13556.6 -36.9648 22544.5
 03 11 2015  07 47  -14.5709 18014.4 -13556.7 -36.9630 22545.6
 03 11 2015  07 48  -14.5665 18013.7 -13557.4 -36.9658 22545.4
 03 11 2015  07 49  -14.5652 18017.5 -13557.7 -36.9603 22548.7
 03 11 2015  07 50  -14.5657 18020.0 -13559.0 -36.9592 22551.4
 03 11 2015  07 51  -14.5629 18022.1 -13558.7 -36.9554 22553.0
 03 11 2015  07 52  -14.5592 18020.4 -13558.0 -36.9567 22551.1
 03 11 2015  07 53  -14.5538 18019.0 -13557.5 -36.9577 22549.7
 03 11 2015  07 54  -14.5527 18013.5 -13555.7 -36.9625 22544.2
 03 11 2015  07 55  -14.5472 18005.9 -13555.1 -36.9728 22537.8
 03 11 2015  07 56  -14.5483 17995.3 -13553.4 -36.9856 22528.4
 03 11 2015  07 57  -14.5617 17982.8 -13552.8 -37.0037 22518.0
 03 11 2015  07 58  -14.5667 17985.1 -13555.3 -37.0050 22521.3
 03 11 2015  07 59  -14.5604 17985.1 -13556.2 -37.0070 22521.9
 03 11 2015  08 00  -14.5600 17978.0 -13556.1 -37.0176 22516.1
 03 11 2015  08 01  -14.5609 17969.7 -13555.8 -37.0297 22509.3
 03 11 2015  08 02  -14.5659 17957.8 -13554.6 -37.0454 22499.1
 03 11 2015  08 03  -14.5799 17953.2 -13555.7 -37.0548 22496.1
 03 11 2015  08 04  -14.5844 17954.0 -13557.8 -37.0579 22498.0
 03 11 2015  08 05  -14.5826 17959.0 -13559.9 -37.0545 22503.2
 03 11 2015  08 06  -14.5768 17964.4 -13562.0 -37.0505 22508.8
 03 11 2015  08 07  -14.5718 17968.9 -13563.0 -37.0455 22513.0
 03 11 2015  08 08  -14.5681 17974.9 -13564.1 -37.0385 22518.5
 03 11 2015  08 09  -14.5582 17972.9 -13563.1 -37.0398 22516.3
 03 11 2015  08 10  -14.5655 17964.6 -13560.9 -37.0480 22508.3
 03 11 2015  08 11  -14.5630 17952.2 -13558.8 -37.0625 22497.2
 03 11 2015  08 12  -14.5777 17949.2 -13559.5 -37.0687 22495.1
 03 11 2015  08 13  -14.5786 17950.6 -13560.9 -37.0694 22497.1
 03 11 2015  08 14  -14.5737 17951.5 -13562.0 -37.0701 22498.5
 03 11 2015  08 15  -14.5713 17947.3 -13561.6 -37.0758 22495.0
 03 11 2015  08 16  -14.5693 17946.0 -13562.2 -37.0791 22494.2
 03 11 2015  08 17  -14.5654 17944.0 -13562.7 -37.0832 22492.9
 03 11 2015  08 18  -14.5678 17942.7 -13563.4 -37.0866 22492.4
 03 11 2015  08 19  -14.5647 17943.1 -13564.0 -37.0872 22493.1
 03 11 2015  08 20  -14.5615 17944.7 -13565.2 -37.0873 22495.0
 03 11 2015  08 21  -14.5578 17943.7 -13565.3 -37.0890 22494.3
 03 11 2015  08 22  -14.5576 17943.8 -13565.7 -37.0896 22494.7
 03 11 2015  08 23  -14.5608 17943.5 -13565.7 -37.0902 22494.4
 03 11 2015  08 24  -14.5632 17944.9 -13566.2 -37.0891 22495.8
 03 11 2015  08 25  -14.5656 17945.2 -13565.9 -37.0879 22495.9
 03 11 2015  08 26  -14.5694 17944.7 -13565.4 -37.0877 22495.2
 03 11 2015  08 27  -14.5731 17944.1 -13566.2 -37.0902 22495.2
 03 11 2015  08 28  -14.5751 17944.1 -13566.1 -37.0899 22495.1
 03 11 2015  08 29  -14.5772 17944.6 -13566.2 -37.0893 22495.6
 03 11 2015  08 30  -14.5788 17944.8 -13565.7 -37.0880 22495.4
 03 11 2015  08 31  -14.5793 17945.5 -13565.5 -37.0866 22495.9
 03 11 2015  08 32  -14.5793 17946.0 -13564.9 -37.0846 22496.0
 03 11 2015  08 33  -14.5800 17946.0 -13565.2 -37.0850 22496.1
 03 11 2015  08 34  -14.5805 17945.3 -13564.6 -37.0851 22495.1
 03 11 2015  08 35  -14.5823 17944.1 -13564.1 -37.0858 22493.9
 03 11 2015  08 36  -14.5837 17944.2 -13563.6 -37.0848 22493.7
 03 11 2015  08 37  -14.5818 17943.6 -13563.9 -37.0861 22493.4
 03 11 2015  08 38  -14.5821 17942.7 -13563.4 -37.0866 22492.4
 03 11 2015  08 39  -14.5822 17941.4 -13563.6 -37.0889 22491.5
 03 11 2015  08 40  -14.5826 17941.0 -13563.6 -37.0897 22491.1
 03 11 2015  08 41  -14.5816 17941.8 -13563.9 -37.0890 22491.9
 03 11 2015  08 42  -14.5797 17942.3 -13563.9 -37.0881 22492.3
 03 11 2015  08 43  -14.5745 17942.3 -13563.2 -37.0867 22491.9
 03 11 2015  08 44  -14.5668 17942.8 -13563.5 -37.0865 22492.5
 03 11 2015  08 45  -14.5604 17942.7 -13563.0 -37.0858 22492.1
 03 11 2015  08 46  -14.5546 17942.7 -13563.3 -37.0864 22492.3
 03 11 2015  08 47  -14.5488 17942.3 -13562.6 -37.0856 22491.6
 03 11 2015  08 48  -14.5437 17942.8 -13563.3 -37.0862 22492.3
 03 11 2015  08 49  -14.5364 17943.3 -13563.0 -37.0847 22492.6
 03 11 2015  08 50  -14.5314 17944.2 -13563.4 -37.0843 22493.6
 03 11 2015  08 51  -14.5293 17943.9 -13562.9 -37.0839 22493.0
 03 11 2015  08 52  -14.5257 17944.2 -13562.7 -37.0828 22493.1
 03 11 2015  08 53  -14.5219 17944.7 -13563.7 -37.0841 22494.1
 03 11 2015  08 54  -14.5196 17944.9 -13563.5 -37.0833 22494.2
 03 11 2015  08 55  -14.5167 17945.2 -13563.4 -37.0828 22494.4
 03 11 2015  08 56  -14.5112 17944.0 -13563.5 -37.0848 22493.4
 03 11 2015  08 57  -14.5093 17942.9 -13563.5 -37.0865 22492.5
 03 11 2015  08 58  -14.5138 17941.0 -13563.7 -37.0898 22491.2
 03 11 2015  08 59  -14.5157 17940.4 -13564.0 -37.0914 22490.8
 03 11 2015  09 00  -14.5156 17940.1 -13564.4 -37.0927 22490.9
 03 11 2015  09 01  -14.5128 17939.8 -13564.8 -37.0939 22490.9
 03 11 2015  09 02  -14.5059 17940.2 -13565.9 -37.0955 22491.9
 03 11 2015  09 03  -14.5066 17941.2 -13566.1 -37.0945 22492.8
 03 11 2015  09 04  -14.5114 17941.1 -13566.1 -37.0945 22492.8
 03 11 2015  09 05  -14.5109 17940.4 -13566.3 -37.0960 22492.2
 03 11 2015  09 06  -14.5109 17940.4 -13566.3 -37.0960 22492.3
 03 11 2015  09 07  -14.5104 17940.4 -13566.1 -37.0956 22492.2
 03 11 2015  09 08  -14.5147 17940.3 -13566.6 -37.0967 22492.4
 03 11 2015  09 09  -14.5227 17940.2 -13566.8 -37.0973 22492.4
 03 11 2015  09 10  -14.5242 17940.5 -13566.9 -37.0970 22492.7
 03 11 2015  09 11  -14.5256 17940.9 -13566.9 -37.0965 22493.1
 03 11 2015  09 12  -14.5282 17940.9 -13567.2 -37.0971 22493.2
 03 11 2015  09 13  -14.5328 17940.5 -13567.0 -37.0972 22492.8
 03 11 2015  09 14  -14.5336 17940.5 -13566.6 -37.0964 22492.5
 03 11 2015  09 15  -14.5377 17941.0 -13567.0 -37.0966 22493.2
 03 11 2015  09 16  -14.5431 17940.4 -13566.9 -37.0972 22492.6
 03 11 2015  09 17  -14.5455 17939.3 -13566.5 -37.0982 22491.5
 03 11 2015  09 18  -14.5451 17939.6 -13566.6 -37.0979 22491.8
 03 11 2015  09 19  -14.5439 17940.1 -13567.2 -37.0983 22492.5
 03 11 2015  09 20  -14.5440 17939.8 -13567.7 -37.0999 22492.6
 03 11 2015  09 21  -14.5440 17939.3 -13567.3 -37.0996 22492.0
 03 11 2015  09 22  -14.5441 17939.6 -13566.9 -37.0984 22492.0
 03 11 2015  09 23  -14.5440 17939.2 -13568.0 -37.1013 22492.4
 03 11 2015  09 24  -14.5381 17938.0 -13567.3 -37.1018 22490.9
 03 11 2015  09 25  -14.5361 17937.5 -13567.0 -37.1019 22490.4
 03 11 2015  09 26  -14.5360 17937.8 -13567.7 -37.1028 22491.0
 03 11 2015  09 27  -14.5345 17937.9 -13567.8 -37.1029 22491.1
 03 11 2015  09 28  -14.5292 17937.9 -13568.0 -37.1034 22491.3
 03 11 2015  09 29  -14.5192 17938.5 -13568.1 -37.1025 22491.9
 03 11 2015  09 30  -14.5150 17939.5 -13568.5 -37.1019 22492.9
 03 11 2015  09 31  -14.5170 17940.1 -13568.6 -37.1011 22493.4
 03 11 2015  09 32  -14.5186 17939.7 -13568.7 -37.1021 22493.2
 03 11 2015  09 33  -14.5172 17939.3 -13568.2 -37.1015 22492.5
 03 11 2015  09 34  -14.5186 17939.7 -13568.5 -37.1015 22493.0
 03 11 2015  09 35  -14.5198 17940.5 -13569.3 -37.1018 22494.2
 03 11 2015  09 36  -14.5198 17940.1 -13568.6 -37.1011 22493.4
 03 11 2015  09 37  -14.5194 17940.1 -13569.2 -37.1024 22493.8
 03 11 2015  09 38  -14.5227 17940.9 -13569.2 -37.1012 22494.4
 03 11 2015  09 39  -14.5245 17941.9 -13569.3 -37.0999 22495.3
 03 11 2015  09 40  -14.5235 17942.8 -13569.7 -37.0993 22496.2
 03 11 2015  09 41  -14.5244 17944.0 -13569.3 -37.0966 22497.0
 03 11 2015  09 42  -14.5263 17944.3 -13568.6 -37.0948 22496.8
 03 11 2015  09 43  -14.5293 17944.2 -13569.5 -37.0967 22497.2
 03 11 2015  09 44  -14.5313 17944.0 -13569.1 -37.0963 22496.8
 03 11 2015  09 45  -14.5324 17944.4 -13569.8 -37.0970 22497.6
 03 11 2015  09 46  -14.5320 17944.6 -13568.5 -37.0941 22497.0
 03 11 2015  09 47  -14.5329 17945.3 -13568.6 -37.0931 22497.5
 03 11 2015  09 48  -14.5318 17945.4 -13569.1 -37.0941 22497.9
 03 11 2015  09 49  -14.5279 17944.5 -13569.2 -37.0956 22497.2
 03 11 2015  09 50  -14.5249 17944.1 -13568.5 -37.0947 22496.6
 03 11 2015  09 51  -14.5248 17944.5 -13569.0 -37.0952 22497.2
 03 11 2015  09 52  -14.5241 17945.1 -13568.8 -37.0940 22497.5
 03 11 2015  09 53  -14.5209 17944.9 -13569.2 -37.0950 22497.6
 03 11 2015  09 54  -14.5184 17944.4 -13569.4 -37.0960 22497.3
 03 11 2015  09 55  -14.5179 17944.6 -13569.3 -37.0957 22497.4
 03 11 2015  09 56  -14.5162 17945.1 -13570.0 -37.0963 22498.3
 03 11 2015  09 57  -14.5128 17946.2 -13570.0 -37.0945 22499.2
 03 11 2015  09 58  -14.5099 17947.3 -13570.3 -37.0935 22500.2
 03 11 2015  09 59  -14.5089 17947.9 -13570.3 -37.0927 22500.6
 03 11 2015  10 00  -14.5093 17948.4 -13570.2 -37.0917 22501.1
 03 11 2015  10 01  -14.5116 17948.9 -13570.6 -37.0917 22501.6
 03 11 2015  10 02  -14.5102 17948.6 -13570.4 -37.0917 22501.3
 03 11 2015  10 03  -14.5081 17947.9 -13570.2 -37.0924 22500.5
 03 11 2015  10 04  -14.5057 17947.3 -13570.5 -37.0939 22500.3
 03 11 2015  10 05  -14.5043 17947.4 -13570.1 -37.0930 22500.2
 03 11 2015  10 06  -14.5035 17948.1 -13570.2 -37.0920 22500.8
 03 11 2015  10 07  -14.5029 17948.4 -13570.6 -37.0924 22501.2
 03 11 2015  10 08  -14.5026 17948.8 -13570.8 -37.0922 22501.6
 03 11 2015  10 09  -14.4974 17949.7 -13570.8 -37.0909 22502.4
 03 11 2015  10 10  -14.4943 17950.7 -13570.9 -37.0896 22503.2
 03 11 2015  10 11  -14.4919 17951.8 -13571.2 -37.0885 22504.3
 03 11 2015  10 12  -14.4905 17952.1 -13571.0 -37.0876 22504.4
 03 11 2015  10 13  -14.4914 17953.3 -13571.2 -37.0862 22505.6
 03 11 2015  10 14  -14.4914 17954.6 -13571.9 -37.0856 22506.9
 03 11 2015  10 15  -14.4913 17955.9 -13571.7 -37.0831 22507.9
 03 11 2015  10 16  -14.4922 17956.2 -13572.3 -37.0840 22508.5
 03 11 2015  10 17  -14.4934 17956.7 -13571.4 -37.0814 22508.3
 03 11 2015  10 18  -14.4944 17957.7 -13571.2 -37.0794 22509.1
 03 11 2015  10 19  -14.4942 17957.9 -13571.6 -37.0799 22509.4
 03 11 2015  10 20  -14.4942 17958.5 -13571.5 -37.0789 22509.9
 03 11 2015  10 21  -14.4928 17958.9 -13571.6 -37.0783 22510.3
 03 11 2015  10 22  -14.4933 17958.1 -13571.2 -37.0788 22509.4
 03 11 2015  10 23  -14.4922 17957.1 -13570.8 -37.0794 22508.3
 03 11 2015  10 24  -14.4946 17954.8 -13570.8 -37.0831 22506.5
 03 11 2015  10 25  -14.4974 17953.5 -13571.6 -37.0867 22505.9
 03 11 2015  10 26  -14.4972 17954.2 -13571.6 -37.0856 22506.5
 03 11 2015  10 27  -14.4924 17953.9 -13571.7 -37.0862 22506.3
 03 11 2015  10 28  -14.4922 17953.1 -13573.1 -37.0903 22506.5
 03 11 2015  10 29  -14.4930 17952.8 -13572.9 -37.0902 22506.2
 03 11 2015  10 30  -14.4944 17954.4 -13572.8 -37.0877 22507.4
 03 11 2015  10 31  -14.4937 17955.0 -13573.2 -37.0876 22508.1
 03 11 2015  10 32  -14.4936 17955.0 -13573.5 -37.0883 22508.2
 03 11 2015  10 33  -14.4940 17955.0 -13573.4 -37.0881 22508.2
 03 11 2015  10 34  -14.4943 17955.9 -13573.6 -37.0869 22509.0
 03 11 2015  10 35  -14.4927 17956.8 -13574.1 -37.0867 22510.0
 03 11 2015  10 36  -14.4927 17956.7 -13573.8 -37.0862 22509.8
 03 11 2015  10 37  -14.4944 17956.3 -13573.2 -37.0856 22509.1
 03 11 2015  10 38  -14.4968 17958.0 -13573.8 -37.0842 22510.8
 03 11 2015  10 39  -14.4981 17958.5 -13572.9 -37.0815 22510.7
 03 11 2015  10 40  -14.4997 17959.5 -13572.8 -37.0799 22511.4
 03 11 2015  10 41  -14.5024 17962.1 -13572.8 -37.0760 22513.5
 03 11 2015  10 42  -14.5034 17965.1 -13573.2 -37.0722 22516.1
 03 11 2015  10 43  -14.5035 17966.5 -13572.8 -37.0691 22517.0
 03 11 2015  10 44  -14.5042 17968.7 -13572.6 -37.0655 22518.6
 03 11 2015  10 45  -14.5046 17970.4 -13571.9 -37.0613 22519.6
 03 11 2015  10 46  -14.5049 17971.1 -13570.4 -37.0572 22519.3
 03 11 2015  10 47  -14.5071 17971.3 -13570.3 -37.0567 22519.3
 03 11 2015  10 48  -14.5070 17970.2 -13569.6 -37.0569 22518.0
 03 11 2015  10 49  -14.5054 17968.7 -13569.3 -37.0586 22516.7
 03 11 2015  10 50  -14.5038 17967.9 -13568.5 -37.0583 22515.6
 03 11 2015  10 51  -14.5069 17967.4 -13569.3 -37.0608 22515.6
 03 11 2015  10 52  -14.5118 17966.9 -13568.5 -37.0598 22514.8
 03 11 2015  10 53  -14.5160 17967.9 -13569.6 -37.0605 22516.2
 03 11 2015  10 54  -14.5169 17968.0 -13569.6 -37.0604 22516.3
 03 11 2015  10 55  -14.5175 17968.3 -13569.5 -37.0597 22516.4
 03 11 2015  10 56  -14.5175 17969.5 -13569.7 -37.0583 22517.6
 03 11 2015  10 57  -14.5165 17969.7 -13569.6 -37.0577 22517.6
 03 11 2015  10 58  -14.5173 17971.4 -13569.7 -37.0553 22519.0
 03 11 2015  10 59  -14.5165 17970.5 -13568.8 -37.0550 22517.8
 03 11 2015  11 00  -14.5160 17970.0 -13569.2 -37.0564 22517.7
 03 11 2015  11 01  -14.5131 17971.1 -13568.9 -37.0541 22518.4
 03 11 2015  11 02  -14.5104 17970.4 -13568.6 -37.0547 22517.7
 03 11 2015  11 03  -14.5110 17970.1 -13568.6 -37.0550 22517.4
 03 11 2015  11 04  -14.5112 17971.1 -13568.5 -37.0534 22518.1
 03 11 2015  11 05  -14.5117 17972.0 -13568.9 -37.0528 22519.1
 03 11 2015  11 06  -14.5120 17972.8 -13569.1 -37.0520 22519.8
 03 11 2015  11 07  -14.5125 17972.2 -13567.8 -37.0501 22518.6
 03 11 2015  11 08  -14.5130 17973.1 -13568.1 -37.0494 22519.4
 03 11 2015  11 09  -14.5138 17973.2 -13568.3 -37.0497 22519.7
 03 11 2015  11 10  -14.5131 17972.0 -13567.5 -37.0501 22518.2
 03 11 2015  11 11  -14.5144 17971.7 -13568.1 -37.0515 22518.3
 03 11 2015  11 12  -14.5168 17970.5 -13566.4 -37.0500 22516.4
 03 11 2015  11 13  -14.5178 17968.9 -13567.1 -37.0540 22515.5
 03 11 2015  11 14  -14.5206 17967.7 -13566.6 -37.0547 22514.2
 03 11 2015  11 15  -14.5206 17967.2 -13566.7 -37.0557 22514.0
 03 11 2015  11 16  -14.5219 17966.1 -13566.3 -37.0564 22512.8
 03 11 2015  11 17  -14.5228 17964.1 -13566.2 -37.0594 22511.2
 03 11 2015  11 18  -14.5241 17963.2 -13567.3 -37.0630 22511.0
 03 11 2015  11 19  -14.5278 17962.1 -13566.4 -37.0630 22509.6
 03 11 2015  11 20  -14.5302 17959.6 -13566.9 -37.0678 22508.0
 03 11 2015  11 21  -14.5308 17962.2 -13568.8 -37.0676 22511.2
 03 11 2015  11 22  -14.5126 17960.2 -13569.9 -37.0730 22510.2
 03 11 2015  11 23  -14.5384 17965.6 -13568.5 -37.0618 22513.8
 03 11 2015  11 24  -14.5195 17972.1 -13569.6 -37.0541 22519.6
 03 11 2015  11 25  -14.5206 17975.3 -13569.9 -37.0497 22522.3
 03 11 2015  11 26  -14.5241 17979.0 -13570.1 -37.0446 22525.3
 03 11 2015  11 27  -14.5270 17981.7 -13568.8 -37.0378 22526.7
 03 11 2015  11 28  -14.5314 17979.3 -13567.6 -37.0390 22524.1
 03 11 2015  11 29  -14.5323 17977.5 -13566.4 -37.0393 22522.0
 03 11 2015  11 30  -14.5325 17975.8 -13566.3 -37.0418 22520.5
 03 11 2015  11 31  -14.5365 17970.0 -13565.6 -37.0491 22515.5
 03 11 2015  11 32  -14.5409 17961.4 -13562.7 -37.0564 22506.9
 03 11 2015  11 33  -14.5455 17960.6 -13565.0 -37.0624 22507.7
 03 11 2015  11 34  -14.5473 17957.8 -13566.1 -37.0690 22506.0
 03 11 2015  11 35  -14.5502 17954.2 -13566.6 -37.0754 22503.4
 03 11 2015  11 36  -14.5515 17950.5 -13567.4 -37.0827 22501.0
 03 11 2015  11 37  -14.5527 17949.4 -13568.1 -37.0858 22500.6
 03 11 2015  11 38  -14.5566 17948.3 -13569.0 -37.0893 22500.2
 03 11 2015  11 39  -14.5554 17947.1 -13569.7 -37.0927 22499.7
 03 11 2015  11 40  -14.5527 17946.2 -13571.3 -37.0972 22499.9
 03 11 2015  11 41  -14.5532 17944.5 -13571.7 -37.1007 22498.8
 03 11 2015  11 42  -14.5528 17943.7 -13572.2 -37.1028 22498.5
 03 11 2015  11 43  -14.5536 17943.2 -13573.1 -37.1055 22498.6
 03 11 2015  11 44  -14.5541 17945.0 -13574.9 -37.1064 22501.1
 03 11 2015  11 45  -14.5538 17945.6 -13574.5 -37.1046 22501.4
 03 11 2015  11 46  -14.5515 17950.2 -13576.6 -37.1020 22506.3
 03 11 2015  11 47  -14.5470 17953.2 -13576.1 -37.0964 22508.4
 03 11 2015  11 48  -14.5467 17953.9 -13576.9 -37.0968 22509.5
 03 11 2015  11 49  -14.5445 17954.4 -13575.3 -37.0928 22508.9
 03 11 2015  11 50  -14.5431 17955.0 -13576.4 -37.0941 22510.0
 03 11 2015  11 51  -14.5410 17954.1 -13576.0 -37.0946 22509.0
 03 11 2015  11 52  -14.5388 17954.0 -13574.2 -37.0911 22507.9
 03 11 2015  11 53  -14.5358 17954.2 -13573.6 -37.0895 22507.7
 03 11 2015  11 54  -14.5360 17954.4 -13576.3 -37.0950 22509.5
 03 11 2015  11 55  -14.5446 17954.5 -13569.4 -37.0805 22505.4
 03 11 2015  11 56  -14.5407 17953.5 -13575.4 -37.0944 22508.3
 03 11 2015  11 57  -14.5487 17952.7 -13565.9 -37.0763 22501.8
 03 11 2015  11 58  -14.5439 17954.3 -13575.7 -37.0938 22509.1
 03 11 2015  11 59  -14.5495 17949.8 -13558.9 -37.0666 22495.3
 03 11 2015  12 00  -14.5432 17958.6 -13576.5 -37.0887 22513.0
 03 11 2015  12 01  -14.5616 17951.5 -13557.4 -37.0609 22495.8
 03 11 2015  12 02  -14.5349 17959.2 -13568.6 -37.0718 22508.7
 03 11 2015  12 03  -14.5335 17986.7 -13579.0 -37.0508 22536.8
 03 11 2015  12 04  -14.5436 17979.8 -13571.0 -37.0450 22526.5
 03 11 2015  12 05  -14.5559 17955.6 -13572.2 -37.0848 22508.0
 03 11 2015  12 06  -14.5564 17957.3 -13573.8 -37.0852 22510.3
 03 11 2015  12 07  -14.5530 17970.3 -13569.5 -37.0566 22518.1
 03 11 2015  12 08  -14.5475 17970.7 -13570.6 -37.0582 22519.0
 03 11 2015  12 09  -14.5445 17965.1 -13572.9 -37.0716 22516.0
 03 11 2015  12 10  -14.5399 17970.6 -13570.5 -37.0581 22518.9
 03 11 2015  12 11  -14.5218 17977.8 -13566.7 -37.0395 22522.4
 03 11 2015  12 12  -14.4936 17995.5 -13560.5 -36.9996 22532.8
 03 11 2015  12 13  -14.4892 17995.2 -13559.0 -36.9971 22531.6
 03 11 2015  12 14  -14.4889 17992.4 -13558.7 -37.0007 22529.2
 03 11 2015  12 15  -14.4920 17990.9 -13558.3 -37.0024 22527.7
 03 11 2015  12 16  -14.4952 17988.2 -13556.5 -37.0028 22524.5
 03 11 2015  12 17  -14.4946 17981.5 -13555.2 -37.0104 22518.4
 03 11 2015  12 18  -14.5334 17954.3 -13561.6 -37.0651 22500.6
 03 11 2015  12 19  -14.5601 17935.4 -13564.9 -37.1008 22487.5
 03 11 2015  12 20  -14.5723 17928.4 -13566.9 -37.1157 22483.1
 03 11 2015  12 21  -14.5779 17927.4 -13567.2 -37.1179 22482.5
 03 11 2015  12 22  -14.5759 17929.7 -13569.5 -37.1190 22485.7
 03 11 2015  12 23  -14.5820 17926.4 -13570.7 -37.1266 22483.8
 03 11 2015  12 24  -14.5803 17927.0 -13571.7 -37.1275 22484.8
 03 11 2015  12 25  -14.5876 17927.4 -13572.1 -37.1279 22485.4
 03 11 2015  12 26  -14.5880 17922.0 -13572.2 -37.1363 22481.2
 03 11 2015  12 27  -14.5920 17922.1 -13573.5 -37.1388 22482.1
 03 11 2015  12 28  -14.5983 17922.6 -13574.6 -37.1403 22483.1
 03 11 2015  12 29  -14.6040 17922.6 -13574.8 -37.1407 22483.2
 03 11 2015  12 30  -14.6076 17921.9 -13574.1 -37.1402 22482.2
 03 11 2015  12 31  -14.6063 17923.1 -13575.2 -37.1407 22483.8
 03 11 2015  12 32  -14.6090 17925.7 -13575.3 -37.1369 22486.0
 03 11 2015  12 33  -14.6096 17923.6 -13574.9 -37.1392 22484.1
 03 11 2015  12 34  -14.6112 17924.7 -13575.3 -37.1384 22485.2
 03 11 2015  12 35  -14.6143 17921.3 -13574.4 -37.1418 22482.0
 03 11 2015  12 36  -14.6159 17922.5 -13574.6 -37.1404 22483.0
 03 11 2015  12 37  -14.6148 17923.7 -13575.1 -37.1395 22484.3
 03 11 2015  12 38  -14.6097 17929.0 -13575.6 -37.1323 22488.8
 03 11 2015  12 39  -14.6064 17932.2 -13576.9 -37.1303 22492.1
 03 11 2015  12 40  -14.6004 17933.7 -13575.6 -37.1251 22492.5
 03 11 2015  12 41  -14.5935 17935.8 -13575.3 -37.1212 22494.0
 03 11 2015  12 42  -14.5822 17936.6 -13574.7 -37.1188 22494.3
 03 11 2015  12 43  -14.5812 17934.3 -13573.6 -37.1202 22491.8
 03 11 2015  12 44  -14.5789 17943.8 -13575.9 -37.1104 22500.7
 03 11 2015  12 45  -14.5699 17948.3 -13575.7 -37.1030 22504.3
 03 11 2015  12 46  -14.5640 17948.3 -13575.4 -37.1023 22504.1
 03 11 2015  12 47  -14.5616 17949.5 -13574.7 -37.0991 22504.6
 03 11 2015  12 48  -14.5637 17944.4 -13572.3 -37.1020 22499.0
 03 11 2015  12 49  -14.5749 17937.1 -13570.3 -37.1093 22492.1
 03 11 2015  12 50  -14.5778 17942.7 -13572.4 -37.1048 22497.8
 03 11 2015  12 51  -14.5771 17947.2 -13573.3 -37.0999 22501.9
 03 11 2015  12 52  -14.5742 17948.8 -13573.6 -37.0980 22503.3
 03 11 2015  12 53  -14.5712 17947.2 -13572.2 -37.0975 22501.3
 03 11 2015  12 54  -14.5735 17943.2 -13570.2 -37.0997 22496.8
 03 11 2015  12 55  -14.5787 17943.2 -13570.6 -37.1005 22497.1
 03 11 2015  12 56  -14.5780 17941.8 -13570.2 -37.1018 22495.7
 03 11 2015  12 57  -14.5783 17943.0 -13570.4 -37.1005 22496.8
 03 11 2015  12 58  -14.5740 17943.0 -13571.8 -37.1032 22497.7
 03 11 2015  12 59  -14.5669 17945.0 -13571.6 -37.0996 22499.2
 03 11 2015  13 00  -14.5694 17944.0 -13572.3 -37.1027 22498.8
 03 11 2015  13 01  -14.5832 17936.6 -13569.6 -37.1086 22491.2
 03 11 2015  13 02  -14.5766 17943.4 -13571.5 -37.1019 22497.8
 03 11 2015  13 03  -14.5733 17942.5 -13571.7 -37.1037 22497.2
 03 11 2015  13 04  -14.5729 17942.0 -13571.8 -37.1047 22496.8
 03 11 2015  13 05  -14.5703 17944.9 -13572.2 -37.1010 22499.4
 03 11 2015  13 06  -14.5656 17944.7 -13570.9 -37.0989 22498.5
 03 11 2015  13 07  -14.5583 17947.0 -13572.0 -37.0974 22501.0
 03 11 2015  13 08  -14.5510 17951.1 -13572.0 -37.0911 22504.3
 03 11 2015  13 09  -14.5480 17948.7 -13572.0 -37.0950 22502.4
 03 11 2015  13 10  -14.5534 17946.1 -13571.1 -37.0970 22499.7
 03 11 2015  13 11  -14.5500 17947.9 -13570.4 -37.0929 22500.7
 03 11 2015  13 12  -14.5446 17950.9 -13571.1 -37.0898 22503.5
 03 11 2015  13 13  -14.5426 17949.3 -13571.3 -37.0926 22502.4
 03 11 2015  13 14  -14.5423 17950.5 -13570.6 -37.0892 22502.9
 03 11 2015  13 15  -14.5366 17953.6 -13570.7 -37.0847 22505.4
 03 11 2015  13 16  -14.5274 17953.2 -13571.1 -37.0862 22505.4
 03 11 2015  13 17  -14.5292 17948.5 -13569.4 -37.0899 22500.6
 03 11 2015  13 18  -14.5293 17949.1 -13569.4 -37.0889 22501.0
 03 11 2015  13 19  -14.5233 17951.4 -13570.6 -37.0878 22503.6
 03 11 2015  13 20  -14.5193 17948.1 -13569.7 -37.0913 22500.5
 03 11 2015  13 21  -14.5232 17944.8 -13568.7 -37.0941 22497.2
 03 11 2015  13 22  -14.5318 17942.5 -13568.8 -37.0977 22495.5
 03 11 2015  13 23  -14.5317 17942.3 -13568.7 -37.0980 22495.2
 03 11 2015  13 24  -14.5418 17938.2 -13568.0 -37.1028 22491.6
 03 11 2015  13 25  -14.5521 17936.2 -13567.6 -37.1051 22489.7
 03 11 2015  13 26  -14.5574 17936.8 -13568.7 -37.1064 22490.8
 03 11 2015  13 27  -14.5561 17939.7 -13570.2 -37.1050 22494.1
 03 11 2015  13 28  -14.5509 17942.0 -13570.6 -37.1023 22496.2
 03 11 2015  13 29  -14.5515 17942.7 -13570.4 -37.1008 22496.5
 03 11 2015  13 30  -14.5532 17943.6 -13569.7 -37.0979 22496.9
 03 11 2015  13 31  -14.5488 17949.0 -13570.8 -37.0919 22501.8
 03 11 2015  13 32  -14.5415 17951.4 -13570.7 -37.0881 22503.7
 03 11 2015  13 33  -14.5402 17948.8 -13569.7 -37.0900 22501.0
 03 11 2015  13 34  -14.5396 17946.7 -13568.5 -37.0907 22498.6
 03 11 2015  13 35  -14.5430 17942.8 -13567.6 -37.0951 22495.0
 03 11 2015  13 36  -14.5525 17938.8 -13567.1 -37.1000 22491.4
 03 11 2015  13 37  -14.5487 17942.0 -13568.1 -37.0972 22494.6
 03 11 2015  13 38  -14.5494 17940.3 -13568.1 -37.0999 22493.3
 03 11 2015  13 39  -14.5483 17940.1 -13568.0 -37.0999 22493.0
 03 11 2015  13 40  -14.5451 17941.0 -13568.3 -37.0991 22493.9
 03 11 2015  13 41  -14.5441 17941.8 -13568.5 -37.0984 22494.7
 03 11 2015  13 42  -14.5421 17943.3 -13568.8 -37.0966 22496.1
 03 11 2015  13 43  -14.5385 17943.2 -13568.3 -37.0958 22495.7
 03 11 2015  13 44  -14.5359 17943.2 -13568.4 -37.0959 22495.8
 03 11 2015  13 45  -14.5460 17943.2 -13567.9 -37.0948 22495.5
 03 11 2015  13 46  -14.5476 17946.3 -13568.5 -37.0915 22498.3
 03 11 2015  13 47  -14.5413 17949.7 -13568.3 -37.0858 22500.9
 03 11 2015  13 48  -14.5247 17958.5 -13569.8 -37.0754 22508.8
 03 11 2015  13 49  -14.5231 17958.7 -13569.0 -37.0735 22508.5
 03 11 2015  13 50  -14.5306 17954.8 -13567.6 -37.0765 22504.5
 03 11 2015  13 51  -14.5300 17955.3 -13567.3 -37.0751 22504.8
 03 11 2015  13 52  -14.5260 17955.5 -13567.2 -37.0747 22504.9
 03 11 2015  13 53  -14.5270 17952.6 -13566.2 -37.0771 22501.9
 03 11 2015  13 54  -14.5205 17954.0 -13566.2 -37.0748 22503.1
 03 11 2015  13 55  -14.5095 17957.7 -13567.1 -37.0710 22506.6
 03 11 2015  13 56  -14.4973 17960.7 -13567.0 -37.0663 22508.9
 03 11 2015  13 57  -14.4841 17965.8 -13568.6 -37.0616 22514.0
 03 11 2015  13 58  -14.4817 17967.2 -13568.1 -37.0584 22514.8
 03 11 2015  13 59  -14.4804 17967.2 -13567.1 -37.0565 22514.1
 03 11 2015  14 00  -14.4785 17968.3 -13566.7 -37.0540 22514.8
 03 11 2015  14 01  -14.4774 17968.4 -13566.5 -37.0534 22514.8
 03 11 2015  14 02  -14.4762 17969.2 -13565.7 -37.0505 22514.9
 03 11 2015  14 03  -14.4699 17970.2 -13565.6 -37.0490 22515.6
 03 11 2015  14 04  -14.4683 17970.1 -13565.5 -37.0488 22515.5
 03 11 2015  14 05  -14.4703 17968.4 -13564.2 -37.0488 22513.3
 03 11 2015  14 06  -14.4732 17965.5 -13564.2 -37.0532 22511.0
 03 11 2015  14 07  -14.4778 17962.6 -13563.3 -37.0560 22508.2
 03 11 2015  14 08  -14.4752 17963.8 -13563.4 -37.0542 22509.2
 03 11 2015  14 09  -14.4723 17964.2 -13564.2 -37.0551 22510.0
 03 11 2015  14 10  -14.4747 17962.1 -13563.6 -37.0572 22508.0
 03 11 2015  14 11  -14.4772 17961.3 -13563.5 -37.0582 22507.3
 03 11 2015  14 12  -14.4813 17959.2 -13562.8 -37.0600 22505.2
 03 11 2015  14 13  -14.4861 17958.6 -13563.1 -37.0616 22504.9
 03 11 2015  14 14  -14.4876 17957.9 -13563.0 -37.0624 22504.2
 03 11 2015  14 15  -14.4894 17956.5 -13563.1 -37.0647 22503.2
 03 11 2015  14 16  -14.4963 17953.0 -13562.7 -37.0694 22500.1
 03 11 2015  14 17  -14.5025 17950.8 -13562.3 -37.0718 22498.2
 03 11 2015  14 18  -14.5045 17950.9 -13562.7 -37.0726 22498.5
 03 11 2015  14 19  -14.5009 17951.7 -13563.6 -37.0731 22499.6
 03 11 2015  14 20  -14.4929 17953.4 -13565.0 -37.0735 22501.9
 03 11 2015  14 21  -14.4794 17954.6 -13565.3 -37.0723 22503.0
 03 11 2015  14 22  -14.4900 17947.4 -13563.9 -37.0804 22496.4
 03 11 2015  14 23  -14.5104 17941.7 -13562.4 -37.0860 22491.0
 03 11 2015  14 24  -14.5164 17939.8 -13563.0 -37.0903 22489.8
 03 11 2015  14 25  -14.5179 17941.1 -13563.6 -37.0895 22491.2
 03 11 2015  14 26  -14.5163 17940.8 -13564.4 -37.0915 22491.4
 03 11 2015  14 27  -14.5130 17940.5 -13564.9 -37.0930 22491.5
 03 11 2015  14 28  -14.5145 17940.5 -13564.8 -37.0927 22491.4
 03 11 2015  14 29  -14.5212 17938.9 -13565.5 -37.0967 22490.5
 03 11 2015  14 30  -14.5219 17938.5 -13565.9 -37.0980 22490.5
 03 11 2015  14 31  -14.5279 17935.4 -13564.9 -37.1008 22487.4
 03 11 2015  14 32  -14.5308 17936.2 -13565.7 -37.1014 22488.5
 03 11 2015  14 33  -14.5344 17937.0 -13565.4 -37.0994 22489.0
 03 11 2015  14 34  -14.5341 17936.8 -13565.9 -37.1006 22489.2
 03 11 2015  14 35  -14.5350 17936.9 -13565.0 -37.0988 22488.7
 03 11 2015  14 36  -14.5355 17936.7 -13565.5 -37.1002 22488.8
 03 11 2015  14 37  -14.5341 17937.9 -13566.1 -37.0994 22490.2
 03 11 2015  14 38  -14.5340 17937.3 -13566.4 -37.1010 22489.8
 03 11 2015  14 39  -14.5352 17936.2 -13565.7 -37.1012 22488.6
 03 11 2015  14 40  -14.5375 17936.8 -13565.4 -37.0998 22488.9
 03 11 2015  14 41  -14.5357 17937.2 -13565.8 -37.1000 22489.4
 03 11 2015  14 42  -14.5354 17936.9 -13565.9 -37.1006 22489.3
 03 11 2015  14 43  -14.5337 17937.5 -13565.3 -37.0984 22489.4
 03 11 2015  14 44  -14.5279 17940.4 -13566.2 -37.0958 22492.2
 03 11 2015  14 45  -14.5235 17941.3 -13566.4 -37.0947 22493.1
 03 11 2015  14 46  -14.5194 17944.6 -13566.5 -37.0900 22495.8
 03 11 2015  14 47  -14.5082 17949.3 -13567.8 -37.0853 22500.2
 03 11 2015  14 48  -14.5042 17948.6 -13566.8 -37.0844 22499.2
 03 11 2015  14 49  -14.5143 17942.4 -13565.3 -37.0909 22493.2
 03 11 2015  14 50  -14.5288 17940.3 -13564.0 -37.0916 22490.8
 03 11 2015  14 51  -14.5293 17945.2 -13564.9 -37.0857 22495.3
 03 11 2015  14 52  -14.5139 17951.2 -13566.0 -37.0790 22500.7
 03 11 2015  14 53  -14.5037 17952.4 -13566.4 -37.0778 22501.9
 03 11 2015  14 54  -14.5091 17950.9 -13565.6 -37.0786 22500.2
 03 11 2015  14 55  -14.5025 17954.2 -13565.9 -37.0739 22503.1
 03 11 2015  14 56  -14.5011 17952.9 -13565.2 -37.0747 22501.6
 03 11 2015  14 57  -14.5023 17953.7 -13565.0 -37.0729 22502.1
 03 11 2015  14 58  -14.5035 17952.1 -13564.7 -37.0748 22500.7
 03 11 2015  14 59  -14.5071 17951.9 -13564.4 -37.0744 22500.3
 03 11 2015  15 00  -14.5017 17956.1 -13565.0 -37.0693 22504.0
 03 11 2015  15 01  -14.4896 17958.1 -13565.7 -37.0677 22506.0
 03 11 2015  15 02  -14.4889 17956.0 -13564.5 -37.0684 22503.7
 03 11 2015  15 03  -14.5021 17952.4 -13563.9 -37.0727 22500.4
 03 11 2015  15 04  -14.5031 17952.8 -13563.7 -37.0718 22500.6
 03 11 2015  15 05  -14.5059 17952.4 -13563.4 -37.0717 22500.0
 03 11 2015  15 06  -14.5131 17950.6 -13563.5 -37.0746 22498.8
 03 11 2015  15 07  -14.5178 17949.4 -13563.4 -37.0764 22497.7
 03 11 2015  15 08  -14.5200 17949.4 -13563.3 -37.0760 22497.7
 03 11 2015  15 09  -14.5243 17949.5 -13563.2 -37.0757 22497.7
 03 11 2015  15 10  -14.5202 17950.9 -13563.3 -37.0739 22498.8
 03 11 2015  15 11  -14.5134 17953.7 -13563.7 -37.0702 22501.3
 03 11 2015  15 12  -14.5101 17955.3 -13563.9 -37.0683 22502.7
 03 11 2015  15 13  -14.5069 17958.1 -13564.1 -37.0644 22505.0
 03 11 2015  15 14  -14.4997 17960.6 -13564.9 -37.0623 22507.5
 03 11 2015  15 15  -14.4991 17959.6 -13563.9 -37.0615 22506.2
 03 11 2015  15 16  -14.5002 17960.9 -13563.3 -37.0584 22506.8
 03 11 2015  15 17  -14.4975 17962.2 -13562.9 -37.0557 22507.7
 03 11 2015  15 18  -14.4946 17961.6 -13562.9 -37.0565 22507.1
 03 11 2015  15 19  -14.5053 17957.2 -13561.8 -37.0612 22503.0
 03 11 2015  15 20  -14.5136 17953.7 -13561.1 -37.0650 22499.8
 03 11 2015  15 21  -14.5178 17952.1 -13560.7 -37.0668 22498.2
 03 11 2015  15 22  -14.5257 17948.3 -13561.0 -37.0731 22495.3
 03 11 2015  15 23  -14.5292 17947.9 -13561.4 -37.0746 22495.3
 03 11 2015  15 24  -14.5281 17950.2 -13562.2 -37.0727 22497.6
 03 11 2015  15 25  -14.5299 17949.4 -13562.3 -37.0740 22497.0
 03 11 2015  15 26  -14.5313 17948.3 -13561.5 -37.0741 22495.7
 03 11 2015  15 27  -14.5286 17949.4 -13561.6 -37.0727 22496.6
 03 11 2015  15 28  -14.5276 17949.6 -13562.3 -37.0738 22497.2
 03 11 2015  15 29  -14.5318 17949.5 -13561.9 -37.0731 22496.9
 03 11 2015  15 30  -14.5328 17950.3 -13562.5 -37.0732 22497.9
 03 11 2015  15 31  -14.5260 17952.0 -13563.0 -37.0716 22499.5
 03 11 2015  15 32  -14.5234 17952.4 -13562.4 -37.0697 22499.5
 03 11 2015  15 33  -14.5249 17953.4 -13562.4 -37.0681 22500.3
 03 11 2015  15 34  -14.5249 17953.0 -13562.4 -37.0687 22500.0
 03 11 2015  15 35  -14.5234 17953.7 -13562.3 -37.0676 22500.4
 03 11 2015  15 36  -14.5241 17953.3 -13561.7 -37.0669 22499.8
 03 11 2015  15 37  -14.5236 17953.2 -13561.8 -37.0672 22499.8
 03 11 2015  15 38  -14.5230 17953.6 -13561.3 -37.0655 22499.8
 03 11 2015  15 39  -14.5217 17954.9 -13561.8 -37.0647 22501.1
 03 11 2015  15 40  -14.5197 17955.5 -13561.5 -37.0631 22501.4
 03 11 2015  15 41  -14.5192 17954.0 -13561.5 -37.0654 22500.2
 03 11 2015  15 42  -14.5222 17953.0 -13561.2 -37.0664 22499.2
 03 11 2015  15 43  -14.5231 17955.0 -13560.6 -37.0622 22500.5
 03 11 2015  15 44  -14.5159 17957.8 -13560.9 -37.0584 22502.9
 03 11 2015  15 45  -14.5102 17959.2 -13561.4 -37.0573 22504.4
 03 11 2015  15 46  -14.5097 17959.6 -13561.1 -37.0560 22504.5
 03 11 2015  15 47  -14.5006 17959.0 -13560.5 -37.0557 22503.7
 03 11 2015  15 48  -14.5080 17957.6 -13560.2 -37.0571 22502.3
 03 11 2015  15 49  -14.5081 17958.7 -13560.2 -37.0555 22503.1
 03 11 2015  15 50  -14.5032 17960.1 -13560.1 -37.0533 22504.2
 03 11 2015  15 51  -14.5033 17959.8 -13560.4 -37.0541 22504.2
 03 11 2015  15 52  -14.5025 17960.2 -13559.5 -37.0517 22504.0
 03 11 2015  15 53  -14.5022 17959.9 -13559.7 -37.0526 22503.8
 03 11 2015  15 54  -14.5024 17959.6 -13559.3 -37.0523 22503.3
 03 11 2015  15 55  -14.5042 17958.6 -13559.2 -37.0537 22502.5
 03 11 2015  15 56  -14.5048 17958.3 -13559.4 -37.0545 22502.4
 03 11 2015  15 57  -14.5040 17958.2 -13558.4 -37.0526 22501.8
 03 11 2015  15 58  -14.5029 17957.7 -13558.9 -37.0543 22501.6
 03 11 2015  15 59  -14.5028 17957.3 -13558.3 -37.0538 22500.9
 03 11 2015  16 00  -14.5033 17957.3 -13558.6 -37.0545 22501.1
 03 11 2015  16 01  -14.5040 17957.2 -13558.1 -37.0536 22500.7
 03 11 2015  16 02  -14.5029 17957.5 -13557.5 -37.0519 22500.7
 03 11 2015  16 03  -14.5046 17956.7 -13557.0 -37.0521 22499.7
 03 11 2015  16 04  -14.5026 17957.3 -13557.3 -37.0517 22500.3
 03 11 2015  16 05  -14.4973 17958.4 -13557.3 -37.0500 22501.2
 03 11 2015  16 06  -14.4970 17958.4 -13557.3 -37.0501 22501.2
 03 11 2015  16 07  -14.4976 17958.1 -13557.3 -37.0506 22500.9
 03 11 2015  16 08  -14.4983 17957.2 -13556.6 -37.0504 22499.8
 03 11 2015  16 09  -14.5003 17957.2 -13556.6 -37.0505 22499.8
 03 11 2015  16 10  -14.4983 17957.5 -13556.6 -37.0500 22500.1
 03 11 2015  16 11  -14.4989 17957.8 -13556.7 -37.0500 22500.4
 03 11 2015  16 12  -14.4990 17957.2 -13557.1 -37.0516 22500.1
 03 11 2015  16 13  -14.5001 17957.0 -13556.5 -37.0506 22499.6
 03 11 2015  16 14  -14.4970 17958.4 -13556.6 -37.0485 22500.8
 03 11 2015  16 15  -14.4939 17959.3 -13556.3 -37.0468 22501.3
 03 11 2015  16 16  -14.4956 17959.1 -13556.3 -37.0471 22501.1
 03 11 2015  16 17  -14.4969 17958.7 -13556.2 -37.0474 22500.8
 03 11 2015  16 18  -14.4991 17958.4 -13556.3 -37.0481 22500.6
 03 11 2015  16 19  -14.4981 17958.6 -13555.4 -37.0458 22500.2
 03 11 2015  16 20  -14.4896 17960.9 -13555.8 -37.0433 22502.3
 03 11 2015  16 21  -14.4898 17961.1 -13556.3 -37.0439 22502.7
 03 11 2015  16 22  -14.4888 17962.0 -13556.4 -37.0427 22503.6
 03 11 2015  16 23  -14.4859 17962.3 -13555.5 -37.0405 22503.2
 03 11 2015  16 24  -14.4818 17962.9 -13555.4 -37.0392 22503.7
 03 11 2015  16 25  -14.4823 17961.3 -13555.7 -37.0423 22502.6
 03 11 2015  16 26  -14.4865 17959.8 -13555.6 -37.0444 22501.3
 03 11 2015  16 27  -14.4876 17959.6 -13554.5 -37.0426 22500.5
 03 11 2015  16 28  -14.4910 17959.2 -13554.8 -37.0438 22500.3
 03 11 2015  16 29  -14.4915 17959.3 -13554.7 -37.0435 22500.4
 03 11 2015  16 30  -14.4896 17959.7 -13554.5 -37.0426 22500.5
 03 11 2015  16 31  -14.4858 17961.2 -13555.2 -37.0416 22502.1
 03 11 2015  16 32  -14.4769 17964.2 -13555.2 -37.0369 22504.6
 03 11 2015  16 33  -14.4696 17965.3 -13555.6 -37.0362 22505.7
 03 11 2015  16 34  -14.4670 17965.9 -13555.2 -37.0344 22505.9
 03 11 2015  16 35  -14.4585 17967.8 -13556.4 -37.0337 22508.2
 03 11 2015  16 36  -14.4525 17968.0 -13556.3 -37.0332 22508.3
 03 11 2015  16 37  -14.4492 17968.4 -13555.9 -37.0318 22508.4
 03 11 2015  16 38  -14.4484 17968.0 -13555.7 -37.0321 22507.9
 03 11 2015  16 39  -14.4466 17967.6 -13555.4 -37.0322 22507.4
 03 11 2015  16 40  -14.4470 17965.2 -13554.7 -37.0343 22505.0
 03 11 2015  16 41  -14.4449 17965.2 -13554.6 -37.0342 22505.0
 03 11 2015  16 42  -14.4428 17965.5 -13555.5 -37.0355 22505.8
 03 11 2015  16 43  -14.4409 17965.4 -13555.0 -37.0347 22505.4
 03 11 2015  16 44  -14.4484 17961.9 -13554.1 -37.0382 22502.1
 03 11 2015  16 45  -14.4502 17961.7 -13553.9 -37.0381 22501.8
 03 11 2015  16 46  -14.4405 17964.7 -13554.8 -37.0354 22504.7
 03 11 2015  16 47  -14.4415 17962.4 -13554.9 -37.0390 22503.0
 03 11 2015  16 48  -14.4553 17957.1 -13553.6 -37.0446 22498.0
 03 11 2015  16 49  -14.4595 17958.4 -13553.6 -37.0426 22498.9
 03 11 2015  16 50  -14.4482 17964.5 -13554.7 -37.0353 22504.5
 03 11 2015  16 51  -14.4393 17965.3 -13555.3 -37.0353 22505.5
 03 11 2015  16 52  -14.4455 17960.3 -13554.3 -37.0411 22500.9
 03 11 2015  16 53  -14.4542 17957.6 -13553.8 -37.0442 22498.4
 03 11 2015  16 54  -14.4642 17954.9 -13553.1 -37.0469 22495.9
 03 11 2015  16 55  -14.4682 17955.2 -13552.6 -37.0455 22495.8
 03 11 2015  16 56  -14.4652 17956.8 -13553.3 -37.0444 22497.5
 03 11 2015  16 57  -14.4590 17958.2 -13553.6 -37.0429 22498.9
 03 11 2015  16 58  -14.4549 17956.5 -13554.2 -37.0466 22497.8
 03 11 2015  16 59  -14.4532 17956.3 -13553.5 -37.0457 22497.2
 03 11 2015  17 00  -14.4525 17954.9 -13553.2 -37.0470 22496.0
 03 11 2015  17 01  -14.4605 17951.8 -13553.3 -37.0520 22493.5
 03 11 2015  17 02  -14.4747 17947.1 -13552.8 -37.0584 22489.5
 03 11 2015  17 03  -14.4771 17947.3 -13552.9 -37.0581 22489.7
 03 11 2015  17 04  -14.4692 17950.9 -13554.0 -37.0550 22493.2
 03 11 2015  17 05  -14.4655 17951.6 -13554.0 -37.0537 22493.8
 03 11 2015  17 06  -14.4702 17949.2 -13553.7 -37.0569 22491.7
 03 11 2015  17 07  -14.4761 17947.4 -13553.8 -37.0599 22490.3
 03 11 2015  17 08  -14.4726 17948.9 -13554.0 -37.0580 22491.7
 03 11 2015  17 09  -14.4689 17950.3 -13554.0 -37.0558 22492.7
 03 11 2015  17 10  -14.4710 17948.9 -13553.8 -37.0576 22491.5
 03 11 2015  17 11  -14.4738 17947.5 -13554.2 -37.0605 22490.6
 03 11 2015  17 12  -14.4755 17946.9 -13553.3 -37.0596 22489.6
 03 11 2015  17 13  -14.4729 17948.3 -13553.9 -37.0586 22491.1
 03 11 2015  17 14  -14.4711 17948.3 -13554.6 -37.0602 22491.6
 03 11 2015  17 15  -14.4739 17946.5 -13554.1 -37.0619 22489.8
 03 11 2015  17 16  -14.4781 17945.5 -13554.1 -37.0635 22489.0
 03 11 2015  17 17  -14.4776 17946.3 -13554.4 -37.0629 22489.8
 03 11 2015  17 18  -14.4732 17947.3 -13554.8 -37.0620 22490.8
 03 11 2015  17 19  -14.4685 17948.4 -13555.0 -37.0608 22491.9
 03 11 2015  17 20  -14.4656 17947.5 -13554.9 -37.0619 22491.1
 03 11 2015  17 21  -14.4742 17942.9 -13553.9 -37.0670 22486.8
 03 11 2015  17 22  -14.4832 17939.9 -13553.6 -37.0709 22484.2
 03 11 2015  17 23  -14.4812 17941.0 -13554.0 -37.0701 22485.4
 03 11 2015  17 24  -14.4742 17942.8 -13555.0 -37.0694 22487.4
 03 11 2015  17 25  -14.4745 17941.6 -13554.5 -37.0702 22486.1
 03 11 2015  17 26  -14.4726 17941.6 -13554.6 -37.0704 22486.2
 03 11 2015  17 27  -14.4660 17944.2 -13554.9 -37.0671 22488.4
 03 11 2015  17 28  -14.4586 17945.9 -13555.9 -37.0664 22490.4
 03 11 2015  17 29  -14.4536 17946.5 -13556.4 -37.0666 22491.2
 03 11 2015  17 30  -14.4523 17946.6 -13556.2 -37.0661 22491.1
 03 11 2015  17 31  -14.4467 17947.7 -13555.6 -37.0631 22491.6
 03 11 2015  17 32  -14.4428 17948.1 -13556.0 -37.0631 22492.2
 03 11 2015  17 33  -14.4430 17947.9 -13556.1 -37.0637 22492.1
 03 11 2015  17 34  -14.4396 17948.4 -13555.9 -37.0626 22492.4
 03 11 2015  17 35  -14.4351 17948.8 -13556.4 -37.0630 22493.0
 03 11 2015  17 36  -14.4351 17947.8 -13556.5 -37.0648 22492.3
 03 11 2015  17 37  -14.4364 17947.0 -13555.8 -37.0645 22491.2
 03 11 2015  17 38  -14.4361 17946.5 -13556.7 -37.0670 22491.3
 03 11 2015  17 39  -14.4355 17945.7 -13556.5 -37.0679 22490.6
 03 11 2015  17 40  -14.4383 17944.1 -13555.8 -37.0689 22488.9
 03 11 2015  17 41  -14.4377 17943.4 -13555.9 -37.0702 22488.4
 03 11 2015  17 42  -14.4335 17943.7 -13556.2 -37.0704 22488.8
 03 11 2015  17 43  -14.4303 17943.6 -13557.0 -37.0723 22489.2
 03 11 2015  17 44  -14.4341 17941.7 -13556.6 -37.0744 22487.5
 03 11 2015  17 45  -14.4368 17941.2 -13556.4 -37.0747 22486.9
 03 11 2015  17 46  -14.4335 17941.0 -13556.9 -37.0760 22487.1
 03 11 2015  17 47  -14.4329 17939.6 -13556.8 -37.0781 22485.9
 03 11 2015  17 48  -14.4302 17940.4 -13557.5 -37.0782 22487.0
 03 11 2015  17 49  -14.4258 17940.5 -13558.2 -37.0794 22487.5
 03 11 2015  17 50  -14.4259 17939.2 -13557.9 -37.0807 22486.2
 03 11 2015  17 51  -14.4283 17938.3 -13558.0 -37.0824 22485.6
 03 11 2015  17 52  -14.4277 17937.7 -13558.2 -37.0837 22485.2
 03 11 2015  17 53  -14.4306 17936.1 -13558.1 -37.0860 22483.9
 03 11 2015  17 54  -14.4329 17935.3 -13558.2 -37.0873 22483.3
 03 11 2015  17 55  -14.4335 17933.8 -13557.9 -37.0890 22481.9
 03 11 2015  17 56  -14.4352 17931.8 -13558.0 -37.0924 22480.5
 03 11 2015  17 57  -14.4340 17932.3 -13558.2 -37.0920 22480.9
 03 11 2015  17 58  -14.4300 17933.5 -13559.3 -37.0924 22482.5
 03 11 2015  17 59  -14.4300 17933.6 -13559.0 -37.0917 22482.5
 03 11 2015  18 00  -14.4291 17932.9 -13558.8 -37.0924 22481.7
 03 11 2015  18 01  -14.4246 17933.3 -13559.3 -37.0926 22482.4
 03 11 2015  18 02  -14.4234 17932.2 -13559.3 -37.0943 22481.5
 03 11 2015  18 03  -14.4259 17931.0 -13559.1 -37.0958 22480.4
 03 11 2015  18 04  -14.4244 17931.1 -13559.5 -37.0964 22480.7
 03 11 2015  18 05  -14.4216 17931.7 -13559.3 -37.0951 22481.1
 03 11 2015  18 06  -14.4214 17931.0 -13560.3 -37.0982 22481.1
 03 11 2015  18 07  -14.4203 17931.0 -13560.1 -37.0979 22481.0
 03 11 2015  18 08  -14.4187 17931.2 -13559.2 -37.0957 22480.6
 03 11 2015  18 09  -14.4175 17930.7 -13559.9 -37.0978 22480.7
 03 11 2015  18 10  -14.4212 17929.3 -13559.8 -37.0999 22479.5
 03 11 2015  18 11  -14.4205 17929.5 -13559.2 -37.0982 22479.3
 03 11 2015  18 12  -14.4190 17929.4 -13560.1 -37.1003 22479.8
 03 11 2015  18 13  -14.4179 17929.8 -13560.0 -37.0996 22480.0
 03 11 2015  18 14  -14.4172 17929.7 -13559.9 -37.0995 22479.9
 03 11 2015  18 15  -14.4181 17927.2 -13558.8 -37.1010 22477.3
 03 11 2015  18 16  -14.4206 17925.9 -13558.7 -37.1029 22476.1
 03 11 2015  18 17  -14.4209 17925.8 -13558.8 -37.1033 22476.2
 03 11 2015  18 18  -14.4209 17924.4 -13558.7 -37.1051 22474.9
 03 11 2015  18 19  -14.4204 17923.6 -13559.5 -37.1080 22474.7
 03 11 2015  18 20  -14.4190 17923.8 -13559.4 -37.1076 22474.9
 03 11 2015  18 21  -14.4175 17924.3 -13560.4 -37.1088 22475.9
 03 11 2015  18 22  -14.4113 17924.9 -13560.3 -37.1076 22476.3
 03 11 2015  18 23  -14.4061 17925.2 -13560.7 -37.1079 22476.8
 03 11 2015  18 24  -14.4063 17923.0 -13560.1 -37.1101 22474.7
 03 11 2015  18 25  -14.4087 17921.6 -13559.7 -37.1114 22473.3
 03 11 2015  18 26  -14.4039 17922.0 -13560.4 -37.1124 22474.0
 03 11 2015  18 27  -14.4033 17921.2 -13560.5 -37.1137 22473.5
 03 11 2015  18 28  -14.4056 17919.4 -13560.5 -37.1164 22472.0
 03 11 2015  18 29  -14.4058 17918.7 -13560.9 -37.1185 22471.7
 03 11 2015  18 30  -14.4060 17917.8 -13560.9 -37.1198 22471.0
 03 11 2015  18 31  -14.4061 17916.7 -13560.7 -37.1211 22470.0
 03 11 2015  18 32  -14.4084 17915.5 -13560.8 -37.1232 22469.1
 03 11 2015  18 33  -14.4114 17913.8 -13560.4 -37.1248 22467.5
 03 11 2015  18 34  -14.4124 17913.3 -13561.2 -37.1273 22467.6
 03 11 2015  18 35  -14.4133 17912.9 -13561.2 -37.1279 22467.2
 03 11 2015  18 36  -14.4141 17912.0 -13561.5 -37.1299 22466.7
 03 11 2015  18 37  -14.4150 17911.1 -13560.9 -37.1301 22465.7
 03 11 2015  18 38  -14.4170 17910.8 -13560.5 -37.1298 22465.2
 03 11 2015  18 39  -14.4136 17910.9 -13561.6 -37.1319 22465.9
 03 11 2015  18 40  -14.4136 17911.2 -13561.4 -37.1309 22466.0
 03 11 2015  18 41  -14.4196 17908.9 -13561.0 -37.1335 22464.0
 03 11 2015  18 42  -14.4255 17905.7 -13560.2 -37.1371 22461.0
 03 11 2015  18 43  -14.4312 17902.8 -13560.3 -37.1417 22458.6
 03 11 2015  18 44  -14.4342 17901.9 -13560.6 -37.1436 22458.2
 03 11 2015  18 45  -14.4357 17900.5 -13560.7 -37.1461 22457.1
 03 11 2015  18 46  -14.4300 17902.0 -13561.6 -37.1454 22458.8
 03 11 2015  18 47  -14.4328 17900.1 -13561.5 -37.1483 22457.2
 03 11 2015  18 48  -14.4411 17896.5 -13561.3 -37.1534 22454.3
 03 11 2015  18 49  -14.4420 17896.0 -13561.5 -37.1546 22453.9
 03 11 2015  18 50  -14.4421 17894.6 -13561.7 -37.1572 22453.0
 03 11 2015  18 51  -14.4413 17893.8 -13561.8 -37.1586 22452.3
 03 11 2015  18 52  -14.4396 17893.4 -13562.3 -37.1602 22452.4
 03 11 2015  18 53  -14.4358 17893.7 -13562.7 -37.1606 22452.9
 03 11 2015  18 54  -14.4339 17893.5 -13563.0 -37.1615 22452.9
 03 11 2015  18 55  -14.4356 17892.2 -13563.1 -37.1637 22451.9
 03 11 2015  18 56  -14.4379 17890.7 -13563.1 -37.1661 22450.8
 03 11 2015  18 57  -14.4389 17889.4 -13563.2 -37.1681 22449.7
 03 11 2015  18 58  -14.4418 17887.6 -13563.0 -37.1705 22448.2
 03 11 2015  18 59  -14.4453 17886.2 -13563.0 -37.1728 22447.0
 03 11 2015  19 00  -14.4463 17885.0 -13563.0 -37.1746 22446.2
 03 11 2015  19 01  -14.4482 17884.2 -13563.2 -37.1762 22445.6
 03 11 2015  19 02  -14.4498 17883.9 -13563.3 -37.1769 22445.5
 03 11 2015  19 03  -14.4477 17884.3 -13563.8 -37.1773 22446.0
 03 11 2015  19 04  -14.4449 17884.0 -13563.8 -37.1778 22445.8
 03 11 2015  19 05  -14.4451 17883.3 -13563.5 -37.1782 22445.1
 03 11 2015  19 06  -14.4460 17882.7 -13563.7 -37.1797 22444.7
 03 11 2015  19 07  -14.4481 17881.5 -13563.3 -37.1806 22443.5
 03 11 2015  19 08  -14.4495 17880.7 -13563.3 -37.1819 22442.9
 03 11 2015  19 09  -14.4500 17880.4 -13563.2 -37.1820 22442.6
 03 11 2015  19 10  -14.4508 17880.1 -13563.3 -37.1827 22442.4
 03 11 2015  19 11  -14.4520 17880.0 -13563.3 -37.1829 22442.4
 03 11 2015  19 12  -14.4543 17879.7 -13563.6 -37.1841 22442.3
 03 11 2015  19 13  -14.4555 17879.7 -13563.5 -37.1837 22442.2
 03 11 2015  19 14  -14.4576 17879.7 -13563.0 -37.1827 22441.9
 03 11 2015  19 15  -14.4605 17879.9 -13563.0 -37.1824 22442.0
 03 11 2015  19 16  -14.4641 17879.5 -13562.8 -37.1827 22441.6
 03 11 2015  19 17  -14.4680 17878.3 -13562.3 -37.1835 22440.3
 03 11 2015  19 18  -14.4717 17877.5 -13561.9 -37.1839 22439.4
 03 11 2015  19 19  -14.4731 17877.0 -13561.6 -37.1841 22438.9
 03 11 2015  19 20  -14.4759 17877.2 -13561.5 -37.1837 22439.0
 03 11 2015  19 21  -14.4770 17876.8 -13561.6 -37.1844 22438.8
 03 11 2015  19 22  -14.4776 17877.0 -13561.4 -37.1838 22438.8
 03 11 2015  19 23  -14.4771 17877.7 -13561.3 -37.1824 22439.3
 03 11 2015  19 24  -14.4769 17878.4 -13561.1 -37.1810 22439.8
 03 11 2015  19 25  -14.4757 17879.4 -13561.3 -37.1797 22440.6
 03 11 2015  19 26  -14.4740 17880.3 -13561.3 -37.1783 22441.3
 03 11 2015  19 27  -14.4726 17880.9 -13561.5 -37.1778 22441.9
 03 11 2015  19 28  -14.4744 17880.9 -13561.3 -37.1776 22441.8
 03 11 2015  19 29  -14.4762 17880.8 -13561.2 -37.1774 22441.7
 03 11 2015  19 30  -14.4753 17881.6 -13561.0 -37.1757 22442.2
 03 11 2015  19 31  -14.4738 17882.6 -13560.8 -37.1738 22442.9
 03 11 2015  19 32  -14.4711 17883.5 -13561.4 -37.1737 22443.9
 03 11 2015  19 33  -14.4699 17884.2 -13561.6 -37.1729 22444.6
 03 11 2015  19 34  -14.4697 17884.5 -13561.3 -37.1719 22444.6
 03 11 2015  19 35  -14.4693 17885.0 -13561.5 -37.1716 22445.2
 03 11 2015  19 36  -14.4692 17885.2 -13561.5 -37.1712 22445.4
 03 11 2015  19 37  -14.4694 17885.6 -13561.6 -37.1709 22445.7
 03 11 2015  19 38  -14.4687 17885.7 -13561.6 -37.1707 22445.8
 03 11 2015  19 39  -14.4690 17886.1 -13561.7 -37.1704 22446.2
 03 11 2015  19 40  -14.4680 17886.4 -13561.9 -37.1702 22446.6
 03 11 2015  19 41  -14.4678 17886.2 -13561.9 -37.1706 22446.4
 03 11 2015  19 42  -14.4691 17886.0 -13561.6 -37.1702 22446.0
 03 11 2015  19 43  -14.4680 17885.8 -13562.2 -37.1717 22446.3
 03 11 2015  19 44  -14.4682 17885.5 -13562.3 -37.1723 22446.1
 03 11 2015  19 45  -14.4686 17885.0 -13562.1 -37.1728 22445.6
 03 11 2015  19 46  -14.4699 17884.8 -13561.7 -37.1723 22445.2
 03 11 2015  19 47  -14.4686 17885.2 -13562.5 -37.1732 22446.0
 03 11 2015  19 48  -14.4673 17885.1 -13562.3 -37.1730 22445.8
 03 11 2015  19 49  -14.4689 17884.0 -13561.7 -37.1734 22444.6
 03 11 2015  19 50  -14.4690 17883.5 -13561.5 -37.1740 22444.0
 03 11 2015  19 51  -14.4698 17882.9 -13562.5 -37.1767 22444.2
 03 11 2015  19 52  -14.4700 17882.5 -13562.3 -37.1770 22443.7
 03 11 2015  19 53  -14.4696 17882.1 -13562.5 -37.1781 22443.5
 03 11 2015  19 54  -14.4693 17881.3 -13562.4 -37.1790 22442.8
 03 11 2015  19 55  -14.4691 17880.7 -13562.4 -37.1800 22442.4
 03 11 2015  19 56  -14.4699 17879.7 -13562.3 -37.1814 22441.5
 03 11 2015  19 57  -14.4669 17880.2 -13562.8 -37.1815 22442.2
 03 11 2015  19 58  -14.4629 17881.2 -13563.2 -37.1809 22443.2
 03 11 2015  19 59  -14.4603 17881.0 -13563.4 -37.1814 22443.2
 03 11 2015  20 00  -14.4588 17881.0 -13563.4 -37.1816 22443.2
 03 11 2015  20 01  -14.4584 17880.8 -13563.5 -37.1821 22443.0
 03 11 2015  20 02  -14.4593 17880.2 -13563.4 -37.1829 22442.6
 03 11 2015  20 03  -14.4597 17879.3 -13563.4 -37.1841 22441.8
 03 11 2015  20 04  -14.4616 17878.0 -13563.2 -37.1858 22440.7
 03 11 2015  20 05  -14.4640 17877.2 -13563.4 -37.1874 22440.2
 03 11 2015  20 06  -14.4678 17875.6 -13563.0 -37.1890 22438.7
 03 11 2015  20 07  -14.4675 17875.6 -13563.5 -37.1902 22438.9
 03 11 2015  20 08  -14.4636 17876.2 -13563.9 -37.1901 22439.6
 03 11 2015  20 09  -14.4610 17876.5 -13564.5 -37.1909 22440.2
 03 11 2015  20 10  -14.4587 17876.6 -13564.4 -37.1904 22440.3
 03 11 2015  20 11  -14.4566 17875.5 -13564.3 -37.1918 22439.3
 03 11 2015  20 12  -14.4600 17873.0 -13564.2 -37.1956 22437.3
 03 11 2015  20 13  -14.4620 17871.2 -13563.8 -37.1976 22435.6
 03 11 2015  20 14  -14.4627 17869.4 -13564.0 -37.2007 22434.3
 03 11 2015  20 15  -14.4653 17868.0 -13564.1 -37.2031 22433.3
 03 11 2015  20 16  -14.4653 17867.2 -13564.8 -37.2057 22433.0
 03 11 2015  20 17  -14.4665 17866.0 -13564.0 -37.2058 22431.6
 03 11 2015  20 18  -14.4683 17864.3 -13564.8 -37.2102 22430.7
 03 11 2015  20 19  -14.4699 17863.5 -13564.8 -37.2116 22430.1
 03 11 2015  20 20  -14.4679 17863.6 -13565.2 -37.2121 22430.3
 03 11 2015  20 21  -14.4678 17863.5 -13565.4 -37.2127 22430.5
 03 11 2015  20 22  -14.4691 17862.6 -13565.6 -37.2143 22429.8
 03 11 2015  20 23  -14.4723 17862.3 -13565.9 -37.2154 22429.8
 03 11 2015  20 24  -14.4756 17862.8 -13565.5 -37.2139 22429.9
 03 11 2015  20 25  -14.4774 17863.4 -13565.5 -37.2130 22430.5
 03 11 2015  20 26  -14.4801 17864.5 -13566.4 -37.2131 22431.8
 03 11 2015  20 27  -14.4817 17867.0 -13566.0 -37.2085 22433.6
 03 11 2015  20 28  -14.4833 17869.3 -13567.1 -37.2073 22436.1
 03 11 2015  20 29  -14.4891 17868.1 -13566.3 -37.2072 22434.7
 03 11 2015  20 30  -14.4935 17870.5 -13565.7 -37.2024 22436.2
 03 11 2015  20 31  -14.4929 17872.5 -13566.1 -37.2001 22438.0
 03 11 2015  20 32  -14.4956 17873.3 -13566.3 -37.1992 22438.8
 03 11 2015  20 33  -14.4985 17875.6 -13565.1 -37.1935 22439.9
 03 11 2015  20 34  -14.4991 17878.5 -13565.7 -37.1902 22442.5
 03 11 2015  20 35  -14.5002 17880.0 -13565.7 -37.1878 22443.7
 03 11 2015  20 36  -14.4990 17881.8 -13565.3 -37.1841 22444.9
 03 11 2015  20 37  -14.4979 17883.8 -13565.1 -37.1808 22446.4
 03 11 2015  20 38  -14.4986 17883.5 -13564.4 -37.1799 22445.7
 03 11 2015  20 39  -14.5019 17884.0 -13564.0 -37.1782 22446.0
 03 11 2015  20 40  -14.5054 17884.5 -13563.6 -37.1766 22446.1
 03 11 2015  20 41  -14.5082 17885.5 -13563.5 -37.1747 22446.8
 03 11 2015  20 42  -14.5084 17886.3 -13563.4 -37.1734 22447.4
 03 11 2015  20 43  -14.5076 17887.9 -13563.3 -37.1708 22448.6
 03 11 2015  20 44  -14.5070 17888.4 -13563.1 -37.1696 22448.9
 03 11 2015  20 45  -14.5089 17888.0 -13562.6 -37.1692 22448.3
 03 11 2015  20 46  -14.5090 17888.1 -13562.5 -37.1689 22448.2
 03 11 2015  20 47  -14.5103 17888.2 -13561.8 -37.1671 22448.0
 03 11 2015  20 48  -14.5116 17888.1 -13562.1 -37.1680 22448.1
 03 11 2015  20 49  -14.5126 17888.7 -13562.1 -37.1672 22448.5
 03 11 2015  20 50  -14.5120 17889.8 -13562.2 -37.1654 22449.5
 03 11 2015  20 51  -14.5099 17890.6 -13562.2 -37.1643 22450.1
 03 11 2015  20 52  -14.5099 17890.0 -13561.8 -37.1644 22449.3
 03 11 2015  20 53  -14.5076 17892.3 -13562.2 -37.1616 22451.4
 03 11 2015  20 54  -14.5051 17893.2 -13562.1 -37.1600 22452.1
 03 11 2015  20 55  -14.5013 17896.1 -13562.4 -37.1563 22454.6
 03 11 2015  20 56  -14.4974 17898.1 -13562.7 -37.1538 22456.4
 03 11 2015  20 57  -14.4969 17896.6 -13562.0 -37.1547 22454.8
 03 11 2015  20 58  -14.4956 17894.8 -13561.3 -37.1559 22452.9
 03 11 2015  20 59  -14.4959 17894.2 -13561.3 -37.1569 22452.4
 03 11 2015  21 00  -14.4956 17894.1 -13561.4 -37.1573 22452.4
 03 11 2015  21 01  -14.4948 17895.0 -13561.7 -37.1566 22453.3
 03 11 2015  21 02  -14.4946 17894.6 -13561.6 -37.1569 22452.9
 03 11 2015  21 03  -14.4948 17894.0 -13561.6 -37.1579 22452.4
 03 11 2015  21 04  -14.4948 17893.5 -13561.6 -37.1586 22452.1
 03 11 2015  21 05  -14.4964 17892.4 -13561.5 -37.1601 22451.1
 03 11 2015  21 06  -14.4974 17891.7 -13561.6 -37.1614 22450.6
 03 11 2015  21 07  -14.4985 17891.0 -13562.0 -37.1632 22450.3
 03 11 2015  21 08  -14.5001 17890.9 -13561.8 -37.1631 22450.1
 03 11 2015  21 09  -14.5010 17891.1 -13562.0 -37.1633 22450.4
 03 11 2015  21 10  -14.5010 17891.5 -13562.4 -37.1634 22450.9
 03 11 2015  21 11  -14.5017 17891.2 -13563.0 -37.1650 22451.1
 03 11 2015  21 12  -14.5028 17891.0 -13562.4 -37.1642 22450.5
 03 11 2015  21 13  -14.5033 17890.7 -13562.7 -37.1652 22450.5
 03 11 2015  21 14  -14.5021 17891.7 -13563.1 -37.1645 22451.6
 03 11 2015  21 15  -14.5016 17891.5 -13563.2 -37.1649 22451.4
 03 11 2015  21 16  -14.5026 17891.3 -13563.3 -37.1655 22451.3
 03 11 2015  21 17  -14.5028 17891.3 -13563.2 -37.1653 22451.3
 03 11 2015  21 18  -14.5024 17891.7 -13563.4 -37.1651 22451.7
 03 11 2015  21 19  -14.5019 17892.0 -13563.6 -37.1650 22452.0
 03 11 2015  21 20  -14.5021 17891.6 -13563.4 -37.1653 22451.6
 03 11 2015  21 21  -14.5022 17891.3 -13563.6 -37.1661 22451.5
 03 11 2015  21 22  -14.5026 17891.2 -13563.7 -37.1665 22451.5
 03 11 2015  21 23  -14.5028 17891.2 -13563.9 -37.1670 22451.6
 03 11 2015  21 24  -14.5025 17891.1 -13563.8 -37.1668 22451.5
 03 11 2015  21 25  -14.5030 17891.0 -13564.0 -37.1673 22451.5
 03 11 2015  21 26  -14.5034 17890.8 -13564.0 -37.1677 22451.4
 03 11 2015  21 27  -14.5031 17891.0 -13564.3 -37.1680 22451.7
 03 11 2015  21 28  -14.5026 17891.7 -13564.5 -37.1672 22452.4
 03 11 2015  21 29  -14.5025 17891.8 -13564.5 -37.1671 22452.4
 03 11 2015  21 30  -14.5023 17891.9 -13565.0 -37.1680 22452.9
 03 11 2015  21 31  -14.5029 17891.7 -13564.4 -37.1670 22452.3
 03 11 2015  21 32  -14.5035 17891.8 -13564.6 -37.1675 22452.5
 03 11 2015  21 33  -14.5038 17891.9 -13565.0 -37.1680 22452.8
 03 11 2015  21 34  -14.5041 17892.0 -13564.4 -37.1667 22452.6
 03 11 2015  21 35  -14.5044 17892.0 -13564.3 -37.1664 22452.4
 03 11 2015  21 36  -14.5041 17892.5 -13564.7 -37.1664 22453.2
 03 11 2015  21 37  -14.5039 17892.9 -13565.0 -37.1665 22453.7
 03 11 2015  21 38  -14.5037 17893.2 -13565.1 -37.1662 22453.9
 03 11 2015  21 39  -14.5033 17893.8 -13564.8 -37.1647 22454.3
 03 11 2015  21 40  -14.5030 17894.4 -13565.2 -37.1645 22455.0
 03 11 2015  21 41  -14.5029 17895.1 -13564.9 -37.1630 22455.3
 03 11 2015  21 42  -14.5025 17895.8 -13565.2 -37.1623 22456.0
 03 11 2015  21 43  -14.5021 17896.7 -13565.0 -37.1608 22456.7
 03 11 2015  21 44  -14.5021 17897.4 -13565.4 -37.1605 22457.5
 03 11 2015  21 45  -14.5021 17898.3 -13564.8 -37.1578 22457.8
 03 11 2015  21 46  -14.5018 17899.5 -13564.8 -37.1558 22458.7
 03 11 2015  21 47  -14.5021 17900.2 -13565.0 -37.1552 22459.5
 03 11 2015  21 48  -14.5021 17900.8 -13564.9 -37.1539 22459.9
 03 11 2015  21 49  -14.5021 17900.9 -13565.4 -37.1549 22460.2
 03 11 2015  21 50  -14.5023 17900.8 -13565.3 -37.1549 22460.0
 03 11 2015  21 51  -14.5024 17900.9 -13564.4 -37.1529 22459.6
 03 11 2015  21 52  -14.5018 17901.6 -13564.3 -37.1516 22460.1
 03 11 2015  21 53  -14.5018 17901.9 -13564.4 -37.1514 22460.4
 03 11 2015  21 54  -14.5019 17902.3 -13564.7 -37.1512 22460.9
 03 11 2015  21 55  -14.5024 17902.3 -13565.3 -37.1526 22461.3
 03 11 2015  21 56  -14.5028 17902.5 -13564.4 -37.1505 22461.0
 03 11 2015  21 57  -14.5030 17902.6 -13565.0 -37.1514 22461.3
 03 11 2015  21 58  -14.5031 17902.8 -13564.3 -37.1499 22461.1
 03 11 2015  21 59  -14.5028 17903.2 -13564.9 -37.1504 22461.8
 03 11 2015  22 00  -14.5026 17903.5 -13564.8 -37.1498 22462.0
 03 11 2015  22 01  -14.5029 17903.6 -13564.4 -37.1488 22461.8
 03 11 2015  22 02  -14.5031 17903.3 -13564.6 -37.1496 22461.7
 03 11 2015  22 03  -14.5033 17903.2 -13564.1 -37.1487 22461.3
 03 11 2015  22 04  -14.5033 17903.2 -13564.7 -37.1500 22461.6
 03 11 2015  22 05  -14.5032 17903.3 -13564.5 -37.1494 22461.6
 03 11 2015  22 06  -14.5028 17903.8 -13564.5 -37.1486 22462.0
 03 11 2015  22 07  -14.5032 17903.4 -13564.6 -37.1494 22461.8
 03 11 2015  22 08  -14.5030 17903.7 -13564.5 -37.1488 22461.9
 03 11 2015  22 09  -14.5030 17903.7 -13564.4 -37.1486 22461.9
 03 11 2015  22 10  -14.5032 17903.7 -13564.3 -37.1485 22461.8
 03 11 2015  22 11  -14.5034 17903.7 -13564.8 -37.1494 22462.1
 03 11 2015  22 12  -14.5032 17904.2 -13564.3 -37.1475 22462.2
 03 11 2015  22 13  -14.5033 17904.5 -13564.5 -37.1477 22462.6
 03 11 2015  22 14  -14.5028 17904.9 -13564.6 -37.1472 22462.9
 03 11 2015  22 15  -14.5028 17904.8 -13564.1 -37.1464 22462.5
 03 11 2015  22 16  -14.5025 17904.9 -13564.1 -37.1461 22462.6
 03 11 2015  22 17  -14.5020 17905.3 -13563.9 -37.1451 22462.8
 03 11 2015  22 18  -14.5017 17905.6 -13564.4 -37.1456 22463.4
 03 11 2015  22 19  -14.5021 17905.9 -13564.0 -37.1446 22463.4
 03 11 2015  22 20  -14.5027 17905.9 -13563.8 -37.1440 22463.2
 03 11 2015  22 21  -14.5033 17905.9 -13564.0 -37.1443 22463.4
 03 11 2015  22 22  -14.5038 17906.1 -13563.7 -37.1436 22463.4
 03 11 2015  22 23  -14.5038 17906.5 -13564.5 -37.1445 22464.1
 03 11 2015  22 24  -14.5038 17906.9 -13564.4 -37.1436 22464.4
 03 11 2015  22 25  -14.5039 17907.1 -13564.3 -37.1431 22464.5
 03 11 2015  22 26  -14.5040 17907.1 -13564.1 -37.1428 22464.4
 03 11 2015  22 27  -14.5040 17907.0 -13564.1 -37.1429 22464.3
 03 11 2015  22 28  -14.5043 17906.8 -13563.9 -37.1428 22464.1
 03 11 2015  22 29  -14.5043 17906.8 -13564.1 -37.1431 22464.2
 03 11 2015  22 30  -14.5042 17906.6 -13563.9 -37.1431 22463.9
 03 11 2015  22 31  -14.5044 17906.4 -13564.2 -37.1441 22463.8
 03 11 2015  22 32  -14.5048 17906.1 -13564.2 -37.1445 22463.7
 03 11 2015  22 33  -14.5049 17906.1 -13564.4 -37.1449 22463.8
 03 11 2015  22 34  -14.5050 17906.4 -13564.1 -37.1439 22463.8
 03 11 2015  22 35  -14.5053 17906.6 -13564.4 -37.1443 22464.2
 03 11 2015  22 36  -14.5055 17906.9 -13564.2 -37.1433 22464.2
 03 11 2015  22 37  -14.5063 17906.7 -13564.0 -37.1432 22464.1
 03 11 2015  22 38  -14.5071 17906.3 -13564.0 -37.1438 22463.7
 03 11 2015  22 39  -14.5079 17905.9 -13563.9 -37.1442 22463.4
 03 11 2015  22 40  -14.5086 17905.7 -13563.5 -37.1438 22462.9
 03 11 2015  22 41  -14.5089 17905.6 -13563.8 -37.1445 22463.0
 03 11 2015  22 42  -14.5091 17905.7 -13564.3 -37.1452 22463.4
 03 11 2015  22 43  -14.5092 17905.9 -13564.3 -37.1450 22463.6
 03 11 2015  22 44  -14.5093 17906.3 -13564.2 -37.1443 22463.9
 03 11 2015  22 45  -14.5101 17906.2 -13564.4 -37.1448 22463.8
 03 11 2015  22 46  -14.5102 17906.4 -13564.3 -37.1441 22463.9
 03 11 2015  22 47  -14.5103 17906.6 -13564.5 -37.1444 22464.3
 03 11 2015  22 48  -14.5112 17906.3 -13564.2 -37.1442 22463.8
 03 11 2015  22 49  -14.5115 17906.3 -13564.1 -37.1441 22463.7
 03 11 2015  22 50  -14.5116 17906.2 -13564.3 -37.1445 22463.8
 03 11 2015  22 51  -14.5120 17906.2 -13564.2 -37.1444 22463.8
 03 11 2015  22 52  -14.5125 17905.9 -13564.4 -37.1452 22463.6
 03 11 2015  22 53  -14.5129 17905.6 -13564.7 -37.1462 22463.6
 03 11 2015  22 54  -14.5137 17905.3 -13564.5 -37.1463 22463.2
 03 11 2015  22 55  -14.5148 17904.6 -13564.1 -37.1467 22462.4
 03 11 2015  22 56  -14.5155 17904.2 -13563.9 -37.1469 22462.0
 03 11 2015  22 57  -14.5157 17904.0 -13564.4 -37.1481 22462.1
 03 11 2015  22 58  -14.5158 17904.1 -13564.5 -37.1482 22462.2
 03 11 2015  22 59  -14.5153 17904.5 -13564.9 -37.1484 22462.8
 03 11 2015  23 00  -14.5152 17905.1 -13565.0 -37.1476 22463.3
 03 11 2015  23 01  -14.5146 17905.6 -13565.0 -37.1469 22463.8
 03 11 2015  23 02  -14.5146 17906.5 -13565.1 -37.1458 22464.5
 03 11 2015  23 03  -14.5144 17906.8 -13565.1 -37.1452 22464.7
 03 11 2015  23 04  -14.5149 17907.0 -13565.1 -37.1451 22464.9
 03 11 2015  23 05  -14.5153 17907.1 -13565.0 -37.1444 22464.9
 03 11 2015  23 06  -14.5159 17907.1 -13564.5 -37.1435 22464.6
 03 11 2015  23 07  -14.5163 17907.1 -13564.9 -37.1444 22464.9
 03 11 2015  23 08  -14.5167 17906.9 -13564.6 -37.1442 22464.5
 03 11 2015  23 09  -14.5172 17906.4 -13564.3 -37.1443 22464.0
 03 11 2015  23 10  -14.5172 17906.2 -13564.9 -37.1457 22464.1
 03 11 2015  23 11  -14.5177 17905.8 -13564.4 -37.1454 22463.6
 03 11 2015  23 12  -14.5175 17905.8 -13564.8 -37.1463 22463.8
 03 11 2015  23 13  -14.5177 17905.6 -13564.4 -37.1458 22463.4
 03 11 2015  23 14  -14.5175 17905.7 -13564.2 -37.1450 22463.3
 03 11 2015  23 15  -14.5172 17905.9 -13564.3 -37.1451 22463.6
 03 11 2015  23 16  -14.5169 17906.2 -13564.8 -37.1456 22464.1
 03 11 2015  23 17  -14.5168 17906.5 -13565.0 -37.1457 22464.4
 03 11 2015  23 18  -14.5166 17906.8 -13565.1 -37.1452 22464.7
 03 11 2015  23 19  -14.5167 17906.8 -13564.9 -37.1449 22464.7
 03 11 2015  23 20  -14.5164 17907.0 -13564.8 -37.1442 22464.7
 03 11 2015  23 21  -14.5164 17907.2 -13564.4 -37.1432 22464.6
 03 11 2015  23 22  -14.5160 17907.7 -13564.6 -37.1429 22465.1
 03 11 2015  23 23  -14.5159 17907.9 -13564.5 -37.1423 22465.3
 03 11 2015  23 24  -14.5161 17907.7 -13565.1 -37.1440 22465.5
 03 11 2015  23 25  -14.5166 17907.2 -13564.1 -37.1426 22464.5
 03 11 2015  23 26  -14.5165 17906.8 -13564.2 -37.1433 22464.2
 03 11 2015  23 27  -14.5163 17906.5 -13564.5 -37.1444 22464.1
 03 11 2015  23 28  -14.5168 17906.0 -13564.3 -37.1449 22463.6
 03 11 2015  23 29  -14.5172 17905.5 -13564.0 -37.1449 22463.1
 03 11 2015  23 30  -14.5172 17905.5 -13564.1 -37.1453 22463.2
 03 11 2015  23 31  -14.5167 17905.9 -13564.3 -37.1450 22463.5
 03 11 2015  23 32  -14.5163 17905.9 -13564.2 -37.1449 22463.5
 03 11 2015  23 33  -14.5156 17906.3 -13564.3 -37.1445 22463.9
 03 11 2015  23 34  -14.5151 17906.6 -13564.4 -37.1442 22464.2
 03 11 2015  23 35  -14.5145 17906.5 -13564.4 -37.1443 22464.1
 03 11 2015  23 36  -14.5146 17906.5 -13564.3 -37.1441 22464.1
 03 11 2015  23 37  -14.5145 17906.9 -13564.7 -37.1443 22464.6
 03 11 2015  23 38  -14.5141 17907.4 -13564.1 -37.1422 22464.6
 03 11 2015  23 39  -14.5136 17907.8 -13564.5 -37.1426 22465.2
 03 11 2015  23 40  -14.5137 17908.1 -13563.7 -37.1405 22464.9
 03 11 2015  23 41  -14.5139 17908.0 -13563.9 -37.1410 22465.0
 03 11 2015  23 42  -14.5137 17907.6 -13564.0 -37.1417 22464.8
 03 11 2015  23 43  -14.5138 17907.5 -13564.1 -37.1422 22464.7
 03 11 2015  23 44  -14.5142 17907.3 -13564.2 -37.1427 22464.6
 03 11 2015  23 45  -14.5150 17906.5 -13563.3 -37.1420 22463.4
 03 11 2015  23 46  -14.5154 17905.9 -13563.8 -37.1441 22463.3
 03 11 2015  23 47  -14.5170 17905.4 -13563.3 -37.1437 22462.6
 03 11 2015  23 48  -14.5174 17905.1 -13563.5 -37.1447 22462.5
 03 11 2015  23 49  -14.5168 17905.0 -13563.7 -37.1450 22462.5
 03 11 2015  23 50  -14.5162 17904.8 -13563.6 -37.1453 22462.3
 03 11 2015  23 51  -14.5158 17905.3 -13563.7 -37.1448 22462.7
 03 11 2015  23 52  -14.5165 17906.0 -13563.9 -37.1440 22463.4
 03 11 2015  23 53  -14.5175 17906.3 -13563.8 -37.1432 22463.6
 03 11 2015  23 54  -14.5187 17905.5 -13563.6 -37.1443 22462.8
 03 11 2015  23 55  -14.5193 17904.6 -13563.3 -37.1451 22461.9
 03 11 2015  23 56  -14.5184 17904.7 -13563.4 -37.1452 22462.1
 03 11 2015  23 57  -14.5174 17905.4 -13563.7 -37.1444 22462.8
SAO MARTINHO DA SERRA EMBRACE-06 <307> 1 Min. Reported data

 DD MM YYYY  HH MM   D(Deg)  H(nT)   Z(nT)   I(Deg)   F(nT)

 03 11 2015  00 00  -14.4650 17953.5 -13560.1 -37.0632 22499.0
 03 11 2015  00 01  -14.4652 17953.4 -13559.8 -37.0629 22498.7
 03 11 2015  00 02  -14.4653 17953.3 -13559.7 -37.0629 22498.6
 03 11 2015  00 03  -14.4654 17953.2 -13559.7 -37.0629 22498.5
 03 11 2015  00 04  -14.4657 17953.1 -13559.4 -37.0625 22498.3
 03 11 2015  00 05  -14.4658 17953.0 -13559.6 -37.0630 22498.3
 03 11 2015  00 06  -14.4663 17952.7 -13560.0 -37.0643 22498.2
 03 11 2015  00 07  -14.4669 17952.4 -13559.3 -37.0634 22497.6
 03 11 2015  00 08  -14.4672 17952.1 -13560.3 -37.0659 22498.0
 03 11 2015  00 09  -14.4680 17951.8 -13559.6 -37.0649 22497.3
 03 11 2015  00 10  -14.4689 17951.4 -13559.4 -37.0652 22496.9
 03 11 2015  00 11  -14.4694 17951.1 -13559.1 -37.0650 22496.5
 03 11 2015  00 12  -14.4695 17951.0 -13560.1 -37.0670 22497.0
 03 11 2015  00 13  -14.4701 17951.0 -13559.4 -37.0658 22496.6
 03 11 2015  00 14  -14.4703 17951.0 -13560.0 -37.0670 22497.0
 03 11 2015  00 15  -14.4705 17951.0 -13559.7 -37.0663 22496.8
 03 11 2015  00 16  -14.4704 17951.2 -13560.0 -37.0667 22497.1
 03 11 2015  00 17  -14.4704 17951.2 -13560.0 -37.0667 22497.1
 03 11 2015  00 18  -14.4704 17951.1 -13560.1 -37.0671 22497.1
 03 11 2015  00 19  -14.4706 17951.1 -13560.1 -37.0670 22497.0
 03 11 2015  00 20  -14.4707 17951.1 -13560.0 -37.0668 22497.1
 03 11 2015  00 21  -14.4710 17951.1 -13560.2 -37.0672 22497.1
 03 11 2015  00 22  -14.4712 17951.0 -13560.3 -37.0674 22497.1
 03 11 2015  00 23  -14.4715 17951.0 -13560.1 -37.0672 22497.0
 03 11 2015  00 24  -14.4714 17951.0 -13560.4 -37.0677 22497.2
 03 11 2015  00 25  -14.4715 17951.1 -13559.9 -37.0666 22497.0
 03 11 2015  00 26  -14.4715 17951.1 -13560.6 -37.0680 22497.4
 03 11 2015  00 27  -14.4716 17951.2 -13560.0 -37.0666 22497.1
 03 11 2015  00 28  -14.4714 17951.4 -13560.5 -37.0674 22497.6
 03 11 2015  00 29  -14.4712 17951.7 -13560.1 -37.0661 22497.6
 03 11 2015  00 30  -14.4711 17951.9 -13560.7 -37.0670 22498.1
 03 11 2015  00 31  -14.4714 17952.0 -13560.1 -37.0656 22497.9
 03 11 2015  00 32  -14.4713 17952.4 -13560.4 -37.0657 22498.3
 03 11 2015  00 33  -14.4710 17952.6 -13560.4 -37.0653 22498.5
 03 11 2015  00 34  -14.4706 17952.9 -13560.7 -37.0654 22498.8
 03 11 2015  00 35  -14.4704 17953.1 -13560.5 -37.0647 22498.9
 03 11 2015  00 36  -14.4702 17953.2 -13560.6 -37.0648 22499.1
 03 11 2015  00 37  -14.4701 17953.3 -13560.5 -37.0645 22499.0
 03 11 2015  00 38  -14.4701 17953.3 -13560.5 -37.0644 22499.1
 03 11 2015  00 39  -14.4703 17953.4 -13560.5 -37.0642 22499.1
 03 11 2015  00 40  -14.4704 17953.4 -13560.6 -37.0643 22499.2
 03 11 2015  00 41  -14.4705 17953.5 -13560.3 -37.0636 22499.1
 03 11 2015  00 42  -14.4707 17953.6 -13560.2 -37.0634 22499.1
 03 11 2015  00 43  -14.4709 17953.6 -13560.5 -37.0640 22499.3
 03 11 2015  00 44  -14.4707 17953.9 -13560.6 -37.0637 22499.6
 03 11 2015  00 45  -14.4708 17954.0 -13560.4 -37.0632 22499.6
 03 11 2015  00 46  -14.4708 17954.2 -13560.5 -37.0632 22499.8
 03 11 2015  00 47  -14.4708 17954.4 -13560.5 -37.0627 22499.9
 03 11 2015  00 48  -14.4709 17954.6 -13560.3 -37.0619 22500.0
 03 11 2015  00 49  -14.4711 17954.8 -13560.3 -37.0617 22500.1
 03 11 2015  00 50  -14.4710 17955.0 -13560.5 -37.0618 22500.5
 03 11 2015  00 51  -14.4709 17955.2 -13560.9 -37.0622 22500.8
 03 11 2015  00 52  -14.4707 17955.4 -13561.1 -37.0623 22501.1
 03 11 2015  00 53  -14.4708 17955.6 -13560.8 -37.0615 22501.1
 03 11 2015  00 54  -14.4705 17955.8 -13560.5 -37.0606 22501.1
 03 11 2015  00 55  -14.4706 17955.8 -13560.4 -37.0605 22501.0
 03 11 2015  00 56  -14.4707 17955.8 -13560.6 -37.0607 22501.1
 03 11 2015  00 57  -14.4710 17955.8 -13560.1 -37.0597 22500.9
 03 11 2015  00 58  -14.4711 17955.8 -13560.5 -37.0605 22501.1
 03 11 2015  00 59  -14.4714 17955.9 -13560.3 -37.0602 22501.0
 03 11 2015  01 00  -14.4716 17955.9 -13560.4 -37.0602 22501.1
 03 11 2015  01 01  -14.4715 17956.2 -13560.5 -37.0600 22501.4
 03 11 2015  01 02  -14.4712 17956.7 -13560.5 -37.0593 22501.8
 03 11 2015  01 03  -14.4712 17957.0 -13560.4 -37.0586 22502.0
 03 11 2015  01 04  -14.4712 17957.3 -13560.5 -37.0583 22502.2
 03 11 2015  01 05  -14.4709 17957.6 -13560.5 -37.0579 22502.5
 03 11 2015  01 06  -14.4707 17957.6 -13560.5 -37.0579 22502.5
 03 11 2015  01 07  -14.4703 17957.8 -13560.4 -37.0573 22502.6
 03 11 2015  01 08  -14.4700 17957.9 -13560.1 -37.0567 22502.5
 03 11 2015  01 09  -14.4695 17957.9 -13560.5 -37.0573 22502.8
 03 11 2015  01 10  -14.4690 17958.1 -13560.4 -37.0568 22502.8
 03 11 2015  01 11  -14.4684 17958.3 -13560.4 -37.0565 22503.0
 03 11 2015  01 12  -14.4682 17958.6 -13560.6 -37.0565 22503.4
 03 11 2015  01 13  -14.4686 17958.8 -13560.4 -37.0558 22503.4
 03 11 2015  01 14  -14.4690 17958.7 -13560.2 -37.0555 22503.2
 03 11 2015  01 15  -14.4690 17958.6 -13560.4 -37.0561 22503.2
 03 11 2015  01 16  -14.4692 17958.3 -13560.2 -37.0561 22502.9
 03 11 2015  01 17  -14.4690 17958.1 -13560.0 -37.0561 22502.6
 03 11 2015  01 18  -14.4688 17957.9 -13560.1 -37.0565 22502.5
 03 11 2015  01 19  -14.4686 17957.7 -13560.1 -37.0569 22502.4
 03 11 2015  01 20  -14.4683 17957.5 -13560.2 -37.0574 22502.2
 03 11 2015  01 21  -14.4680 17957.4 -13560.1 -37.0574 22502.1
 03 11 2015  01 22  -14.4677 17957.4 -13560.2 -37.0576 22502.1
 03 11 2015  01 23  -14.4675 17957.4 -13560.1 -37.0575 22502.1
 03 11 2015  01 24  -14.4676 17957.2 -13560.4 -37.0582 22502.1
 03 11 2015  01 25  -14.4676 17957.1 -13560.3 -37.0582 22502.0
 03 11 2015  01 26  -14.4676 17957.0 -13560.6 -37.0590 22502.1
 03 11 2015  01 27  -14.4675 17957.0 -13560.4 -37.0584 22502.0
 03 11 2015  01 28  -14.4673 17957.1 -13560.8 -37.0592 22502.3
 03 11 2015  01 29  -14.4673 17957.3 -13560.5 -37.0584 22502.2
 03 11 2015  01 30  -14.4675 17957.2 -13560.8 -37.0589 22502.3
 03 11 2015  01 31  -14.4674 17957.4 -13560.6 -37.0584 22502.4
 03 11 2015  01 32  -14.4670 17957.5 -13560.7 -37.0584 22502.6
 03 11 2015  01 33  -14.4661 17958.0 -13560.8 -37.0579 22503.0
 03 11 2015  01 34  -14.4648 17958.8 -13561.0 -37.0570 22503.8
 03 11 2015  01 35  -14.4631 17959.7 -13561.2 -37.0560 22504.6
 03 11 2015  01 36  -14.4604 17962.3 -13561.6 -37.0529 22506.9
 03 11 2015  01 37  -14.4584 17966.4 -13562.2 -37.0477 22510.5
 03 11 2015  01 38  -14.4553 17971.6 -13562.8 -37.0411 22515.1
 03 11 2015  01 39  -14.4528 17975.7 -13563.0 -37.0351 22518.4
 03 11 2015  01 40  -14.4510 17977.5 -13562.3 -37.0310 22519.4
 03 11 2015  01 41  -14.4500 17976.9 -13561.3 -37.0299 22518.4
 03 11 2015  01 42  -14.4498 17975.2 -13559.8 -37.0295 22516.1
 03 11 2015  01 43  -14.4496 17973.4 -13560.0 -37.0327 22514.8
 03 11 2015  01 44  -14.4496 17971.4 -13559.3 -37.0343 22512.8
 03 11 2015  01 45  -14.4498 17969.5 -13558.8 -37.0360 22511.0
 03 11 2015  01 46  -14.4500 17968.1 -13559.1 -37.0389 22510.0
 03 11 2015  01 47  -14.4501 17967.5 -13559.5 -37.0405 22509.8
 03 11 2015  01 48  -14.4494 17968.0 -13559.6 -37.0400 22510.2
 03 11 2015  01 49  -14.4486 17969.0 -13559.7 -37.0389 22511.1
 03 11 2015  01 50  -14.4472 17970.5 -13560.6 -37.0384 22512.8
 03 11 2015  01 51  -14.4461 17971.7 -13560.1 -37.0353 22513.5
 03 11 2015  01 52  -14.4452 17972.7 -13560.6 -37.0349 22514.6
 03 11 2015  01 53  -14.4450 17972.9 -13560.1 -37.0334 22514.5
 03 11 2015  01 54  -14.4447 17974.6 -13560.4 -37.0317 22516.0
 03 11 2015  01 55  -14.4450 17971.5 -13559.8 -37.0351 22513.1
 03 11 2015  01 56  -14.4449 17973.5 -13560.5 -37.0333 22515.2
 03 11 2015  01 57  -14.4449 17972.8 -13560.5 -37.0345 22514.6
 03 11 2015  01 58  -14.4442 17971.6 -13560.0 -37.0353 22513.3
 03 11 2015  01 59  -14.4453 17973.4 -13560.5 -37.0335 22515.1
 03 11 2015  02 00  -14.4450 17970.3 -13560.1 -37.0376 22512.4
 03 11 2015  02 01  -14.4458 17973.3 -13560.8 -37.0344 22515.3
 03 11 2015  02 02  -14.4467 17970.7 -13560.0 -37.0367 22512.7
 03 11 2015  02 03  -14.4471 17972.2 -13560.6 -37.0356 22514.1
 03 11 2015  02 04  -14.4482 17970.7 -13560.3 -37.0373 22512.9
 03 11 2015  02 05  -14.4490 17970.2 -13559.9 -37.0371 22512.2
 03 11 2015  02 06  -14.4491 17969.2 -13560.0 -37.0391 22511.5
 03 11 2015  02 07  -14.4506 17968.4 -13560.5 -37.0413 22511.1
 03 11 2015  02 08  -14.4515 17967.8 -13560.2 -37.0416 22510.5
 03 11 2015  02 09  -14.4525 17966.9 -13560.5 -37.0436 22509.9
 03 11 2015  02 10  -14.4531 17966.1 -13560.2 -37.0441 22509.1
 03 11 2015  02 11  -14.4533 17965.7 -13560.8 -37.0459 22509.2
 03 11 2015  02 12  -14.4538 17964.9 -13560.4 -37.0465 22508.3
 03 11 2015  02 13  -14.4540 17965.6 -13561.1 -37.0468 22509.3
 03 11 2015  02 14  -14.4557 17964.4 -13561.1 -37.0485 22508.3
 03 11 2015  02 15  -14.4564 17964.8 -13561.2 -37.0482 22508.6
 03 11 2015  02 16  -14.4571 17963.7 -13561.4 -37.0502 22507.9
 03 11 2015  02 17  -14.4576 17963.6 -13561.4 -37.0505 22507.8
 03 11 2015  02 18  -14.4582 17963.2 -13561.3 -37.0509 22507.5
 03 11 2015  02 19  -14.4587 17962.9 -13561.0 -37.0507 22507.0
 03 11 2015  02 20  -14.4589 17962.7 -13561.3 -37.0516 22507.0
 03 11 2015  02 21  -14.4593 17962.2 -13561.2 -37.0522 22506.6
 03 11 2015  02 22  -14.4593 17960.9 -13561.8 -37.0555 22505.9
 03 11 2015  02 23  -14.4594 17961.0 -13561.6 -37.0549 22505.9
 03 11 2015  02 24  -14.4593 17960.1 -13561.5 -37.0560 22505.2
 03 11 2015  02 25  -14.4595 17960.8 -13561.9 -37.0559 22505.9
 03 11 2015  02 26  -14.4601 17959.9 -13562.4 -37.0581 22505.5
 03 11 2015  02 27  -14.4611 17958.6 -13561.9 -37.0592 22504.2
 03 11 2015  02 28  -14.4617 17957.0 -13561.9 -37.0615 22502.9
 03 11 2015  02 29  -14.4629 17955.9 -13561.9 -37.0634 22502.0
 03 11 2015  02 30  -14.4640 17955.0 -13562.0 -37.0649 22501.4
 03 11 2015  02 31  -14.4652 17954.5 -13562.0 -37.0656 22501.0
 03 11 2015  02 32  -14.4662 17954.4 -13562.5 -37.0667 22501.1
 03 11 2015  02 33  -14.4670 17954.6 -13562.6 -37.0666 22501.4
 03 11 2015  02 34  -14.4674 17954.7 -13562.9 -37.0672 22501.6
 03 11 2015  02 35  -14.4675 17955.6 -13563.8 -37.0676 22502.9
 03 11 2015  02 36  -14.4679 17956.6 -13563.5 -37.0656 22503.5
 03 11 2015  02 37  -14.4684 17957.3 -13563.1 -37.0635 22503.8
 03 11 2015  02 38  -14.4683 17957.2 -13564.0 -37.0655 22504.3
 03 11 2015  02 39  -14.4682 17956.8 -13563.9 -37.0660 22503.9
 03 11 2015  02 40  -14.4688 17956.3 -13563.5 -37.0660 22503.2
 03 11 2015  02 41  -14.4690 17956.3 -13563.3 -37.0654 22503.1
 03 11 2015  02 42  -14.4692 17956.8 -13563.4 -37.0650 22503.6
 03 11 2015  02 43  -14.4699 17957.2 -13563.0 -37.0636 22503.7
 03 11 2015  02 44  -14.4696 17957.8 -13563.7 -37.0641 22504.6
 03 11 2015  02 45  -14.4690 17958.6 -13563.6 -37.0625 22505.2
 03 11 2015  02 46  -14.4686 17959.1 -13563.9 -37.0625 22505.8
 03 11 2015  02 47  -14.4681 17959.3 -13564.2 -37.0628 22506.1
 03 11 2015  02 48  -14.4682 17959.0 -13563.5 -37.0617 22505.5
 03 11 2015  02 49  -14.4684 17958.5 -13563.7 -37.0630 22505.1
 03 11 2015  02 50  -14.4686 17958.1 -13563.5 -37.0631 22504.7
 03 11 2015  02 51  -14.4682 17958.3 -13563.4 -37.0626 22504.8
 03 11 2015  02 52  -14.4680 17958.8 -13563.7 -37.0625 22505.4
 03 11 2015  02 53  -14.4670 17958.9 -13563.3 -37.0615 22505.3
 03 11 2015  02 54  -14.4655 17959.1 -13563.8 -37.0622 22505.7
 03 11 2015  02 55  -14.4648 17959.1 -13563.6 -37.0619 22505.6
 03 11 2015  02 56  -14.4645 17958.9 -13564.2 -37.0633 22505.7
 03 11 2015  02 57  -14.4639 17958.9 -13564.0 -37.0630 22505.6
 03 11 2015  02 58  -14.4644 17959.0 -13564.1 -37.0631 22505.7
 03 11 2015  02 59  -14.4657 17958.8 -13563.7 -37.0624 22505.4
 03 11 2015  03 00  -14.4673 17958.3 -13563.6 -37.0630 22504.9
 03 11 2015  03 01  -14.4680 17957.5 -13564.0 -37.0652 22504.5
 03 11 2015  03 02  -14.4687 17957.0 -13563.4 -37.0648 22503.8
 03 11 2015  03 03  -14.4688 17957.4 -13563.9 -37.0649 22504.4
 03 11 2015  03 04  -14.4696 17957.3 -13564.0 -37.0652 22504.4
 03 11 2015  03 05  -14.4697 17957.1 -13564.5 -37.0666 22504.5
 03 11 2015  03 06  -14.4699 17956.6 -13564.4 -37.0675 22504.0
 03 11 2015  03 07  -14.4703 17955.9 -13563.7 -37.0669 22503.1
 03 11 2015  03 08  -14.4709 17955.6 -13565.1 -37.0704 22503.7
 03 11 2015  03 09  -14.4715 17955.5 -13565.2 -37.0705 22503.6
 03 11 2015  03 10  -14.4715 17955.8 -13564.1 -37.0679 22503.3
 03 11 2015  03 11  -14.4719 17956.1 -13565.1 -37.0695 22504.1
 03 11 2015  03 12  -14.4730 17955.8 -13564.7 -37.0691 22503.6
 03 11 2015  03 13  -14.4742 17955.1 -13564.4 -37.0696 22502.9
 03 11 2015  03 14  -14.4755 17954.5 -13564.9 -37.0715 22502.7
 03 11 2015  03 15  -14.4770 17954.2 -13564.6 -37.0712 22502.3
 03 11 2015  03 16  -14.4780 17953.8 -13565.1 -37.0731 22502.2
 03 11 2015  03 17  -14.4798 17953.4 -13564.7 -37.0727 22501.6
 03 11 2015  03 18  -14.4818 17953.0 -13565.0 -37.0740 22501.6
 03 11 2015  03 19  -14.4839 17952.7 -13565.2 -37.0749 22501.4
 03 11 2015  03 20  -14.4856 17951.9 -13564.9 -37.0755 22500.6
 03 11 2015  03 21  -14.4870 17951.4 -13565.0 -37.0765 22500.2
 03 11 2015  03 22  -14.4887 17951.3 -13565.2 -37.0770 22500.3
 03 11 2015  03 23  -14.4904 17951.1 -13565.1 -37.0771 22500.1
 03 11 2015  03 24  -14.4923 17950.4 -13565.7 -37.0794 22499.9
 03 11 2015  03 25  -14.4947 17950.1 -13565.4 -37.0793 22499.5
 03 11 2015  03 26  -14.4963 17950.1 -13566.1 -37.0808 22499.9
 03 11 2015  03 27  -14.4980 17949.7 -13565.6 -37.0803 22499.2
 03 11 2015  03 28  -14.4997 17949.8 -13566.0 -37.0809 22499.6
 03 11 2015  03 29  -14.5016 17950.0 -13565.8 -37.0803 22499.6
 03 11 2015  03 30  -14.5033 17950.7 -13566.0 -37.0796 22500.3
 03 11 2015  03 31  -14.5047 17950.8 -13566.1 -37.0796 22500.5
 03 11 2015  03 32  -14.5063 17951.1 -13565.5 -37.0780 22500.3
 03 11 2015  03 33  -14.5080 17950.6 -13565.6 -37.0788 22500.0
 03 11 2015  03 34  -14.5101 17948.6 -13565.4 -37.0815 22498.3
 03 11 2015  03 35  -14.5130 17946.2 -13565.1 -37.0846 22496.2
 03 11 2015  03 36  -14.5147 17944.0 -13565.3 -37.0884 22494.5
 03 11 2015  03 37  -14.5171 17942.6 -13564.5 -37.0890 22493.0
 03 11 2015  03 38  -14.5197 17942.2 -13565.0 -37.0906 22493.0
 03 11 2015  03 39  -14.5212 17942.2 -13566.2 -37.0930 22493.7
 03 11 2015  03 40  -14.5217 17943.3 -13566.7 -37.0924 22494.8
 03 11 2015  03 41  -14.5227 17944.9 -13567.2 -37.0908 22496.4
 03 11 2015  03 42  -14.5236 17945.7 -13566.6 -37.0884 22496.7
 03 11 2015  03 43  -14.5241 17946.1 -13566.7 -37.0880 22497.0
 03 11 2015  03 44  -14.5242 17946.5 -13566.3 -37.0867 22497.1
 03 11 2015  03 45  -14.5243 17946.6 -13566.8 -37.0876 22497.5
 03 11 2015  03 46  -14.5248 17946.9 -13566.6 -37.0868 22497.7
 03 11 2015  03 47  -14.5248 17947.4 -13566.4 -37.0856 22497.9
 03 11 2015  03 48  -14.5242 17948.3 -13567.3 -37.0859 22499.2
 03 11 2015  03 49  -14.5243 17949.5 -13566.2 -37.0818 22499.5
 03 11 2015  03 50  -14.5240 17951.8 -13566.6 -37.0791 22501.6
 03 11 2015  03 51  -14.5242 17953.1 -13566.9 -37.0779 22502.8
 03 11 2015  03 52  -14.5240 17953.5 -13567.6 -37.0784 22503.5
 03 11 2015  03 53  -14.5237 17953.3 -13567.3 -37.0782 22503.1
 03 11 2015  03 54  -14.5241 17952.7 -13565.9 -37.0762 22501.9
 03 11 2015  03 55  -14.5243 17953.0 -13565.6 -37.0751 22501.9
 03 11 2015  03 56  -14.5236 17953.3 -13566.1 -37.0759 22502.4
 03 11 2015  03 57  -14.5238 17953.4 -13565.6 -37.0747 22502.3
 03 11 2015  03 58  -14.5240 17953.9 -13566.8 -37.0764 22503.4
 03 11 2015  03 59  -14.5245 17954.0 -13565.7 -37.0739 22502.7
 03 11 2015  04 00  -14.5252 17954.0 -13565.4 -37.0733 22502.6
 03 11 2015  04 01  -14.5251 17954.4 -13566.4 -37.0748 22503.5
 03 11 2015  04 02  -14.5255 17954.9 -13565.6 -37.0725 22503.4
 03 11 2015  04 03  -14.5257 17955.1 -13565.8 -37.0724 22503.7
 03 11 2015  04 04  -14.5266 17955.4 -13565.8 -37.0721 22503.9
 03 11 2015  04 05  -14.5278 17955.4 -13565.9 -37.0723 22504.0
 03 11 2015  04 06  -14.5293 17954.7 -13565.7 -37.0728 22503.3
 03 11 2015  04 07  -14.5304 17954.7 -13565.9 -37.0733 22503.5
 03 11 2015  04 08  -14.5313 17955.8 -13565.8 -37.0714 22504.3
 03 11 2015  04 09  -14.5318 17956.0 -13566.0 -37.0716 22504.5
 03 11 2015  04 10  -14.5325 17956.1 -13565.6 -37.0704 22504.3
 03 11 2015  04 11  -14.5329 17957.1 -13566.1 -37.0699 22505.4
 03 11 2015  04 12  -14.5327 17957.5 -13565.9 -37.0690 22505.7
 03 11 2015  04 13  -14.5328 17957.8 -13566.0 -37.0686 22506.0
 03 11 2015  04 14  -14.5332 17959.2 -13565.7 -37.0659 22506.9
 03 11 2015  04 15  -14.5329 17960.5 -13566.2 -37.0648 22508.3
 03 11 2015  04 16  -14.5333 17961.2 -13566.3 -37.0640 22508.9
 03 11 2015  04 17  -14.5336 17961.5 -13565.4 -37.0619 22508.6
 03 11 2015  04 18  -14.5342 17961.2 -13565.2 -37.0619 22508.3
 03 11 2015  04 19  -14.5347 17960.8 -13565.7 -37.0635 22508.1
 03 11 2015  04 20  -14.5352 17960.8 -13565.0 -37.0620 22507.8
 03 11 2015  04 21  -14.5354 17962.9 -13564.9 -37.0587 22509.4
 03 11 2015  04 22  -14.5347 17964.4 -13565.9 -37.0584 22511.2
 03 11 2015  04 23  -14.5345 17965.0 -13565.8 -37.0571 22511.6
 03 11 2015  04 24  -14.5349 17965.3 -13565.5 -37.0562 22511.7
 03 11 2015  04 25  -14.5354 17965.0 -13565.4 -37.0564 22511.4
 03 11 2015  04 26  -14.5361 17964.3 -13565.3 -37.0574 22510.8
 03 11 2015  04 27  -14.5370 17963.4 -13565.1 -37.0583 22509.8
 03 11 2015  04 28  -14.5381 17963.0 -13564.3 -37.0574 22509.1
 03 11 2015  04 29  -14.5387 17962.6 -13565.0 -37.0593 22509.3
 03 11 2015  04 30  -14.5388 17963.7 -13564.6 -37.0569 22509.8
 03 11 2015  04 31  -14.5381 17966.2 -13565.1 -37.0539 22512.1
 03 11 2015  04 32  -14.5360 17967.4 -13565.4 -37.0528 22513.3
 03 11 2015  04 33  -14.5351 17968.1 -13565.6 -37.0520 22513.9
 03 11 2015  04 34  -14.5344 17967.8 -13565.0 -37.0513 22513.3
 03 11 2015  04 35  -14.5339 17966.6 -13565.0 -37.0530 22512.4
 03 11 2015  04 36  -14.5342 17965.8 -13564.5 -37.0533 22511.5
 03 11 2015  04 37  -14.5342 17964.7 -13564.4 -37.0550 22510.5
 03 11 2015  04 38  -14.5351 17964.2 -13564.2 -37.0553 22510.0
 03 11 2015  04 39  -14.5357 17963.3 -13564.4 -37.0570 22509.5
 03 11 2015  04 40  -14.5369 17962.7 -13564.4 -37.0579 22508.9
 03 11 2015  04 41  -14.5373 17962.4 -13564.4 -37.0583 22508.7
 03 11 2015  04 42  -14.5373 17962.2 -13564.6 -37.0591 22508.6
 03 11 2015  04 43  -14.5371 17962.2 -13564.9 -37.0597 22508.8
 03 11 2015  04 44  -14.5371 17962.0 -13564.7 -37.0596 22508.6
 03 11 2015  04 45  -14.5371 17960.8 -13564.5 -37.0610 22507.5
 03 11 2015  04 46  -14.5372 17960.0 -13564.7 -37.0625 22507.0
 03 11 2015  04 47  -14.5374 17959.6 -13565.4 -37.0646 22507.1
 03 11 2015  04 48  -14.5377 17959.7 -13564.7 -37.0631 22506.7
 03 11 2015  04 49  -14.5374 17960.0 -13565.9 -37.0651 22507.7
 03 11 2015  04 50  -14.5376 17960.1 -13565.3 -37.0637 22507.4
 03 11 2015  04 51  -14.5386 17959.8 -13565.5 -37.0646 22507.3
 03 11 2015  04 52  -14.5390 17959.8 -13565.5 -37.0647 22507.2
 03 11 2015  04 53  -14.5402 17959.2 -13564.9 -37.0642 22506.4
 03 11 2015  04 54  -14.5413 17958.8 -13564.9 -37.0648 22506.1
 03 11 2015  04 55  -14.5416 17959.1 -13565.5 -37.0657 22506.7
 03 11 2015  04 56  -14.5426 17959.6 -13566.4 -37.0669 22507.6
 03 11 2015  04 57  -14.5436 17959.6 -13565.2 -37.0642 22506.9
 03 11 2015  04 58  -14.5448 17959.7 -13565.6 -37.0650 22507.2
 03 11 2015  04 59  -14.5463 17959.1 -13565.2 -37.0651 22506.5
 03 11 2015  05 00  -14.5473 17959.2 -13565.3 -37.0652 22506.7
 03 11 2015  05 01  -14.5476 17958.8 -13565.4 -37.0661 22506.4
 03 11 2015  05 02  -14.5493 17959.4 -13565.9 -37.0661 22507.1
 03 11 2015  05 03  -14.5501 17959.3 -13566.3 -37.0670 22507.3
 03 11 2015  05 04  -14.5516 17958.8 -13566.1 -37.0672 22506.8
 03 11 2015  05 05  -14.5533 17959.6 -13566.1 -37.0662 22507.5
 03 11 2015  05 06  -14.5531 17959.0 -13565.6 -37.0660 22506.7
 03 11 2015  05 07  -14.5535 17957.1 -13565.5 -37.0687 22505.1
 03 11 2015  05 08  -14.5566 17955.0 -13564.9 -37.0706 22503.1
 03 11 2015  05 09  -14.5586 17954.2 -13566.0 -37.0743 22503.1
 03 11 2015  05 10  -14.5594 17951.4 -13565.2 -37.0769 22500.4
 03 11 2015  05 11  -14.5615 17949.3 -13564.5 -37.0787 22498.3
 03 11 2015  05 12  -14.5629 17948.2 -13565.8 -37.0830 22498.2
 03 11 2015  05 13  -14.5638 17948.1 -13565.6 -37.0827 22497.9
 03 11 2015  05 14  -14.5659 17947.8 -13566.2 -37.0844 22498.1
 03 11 2015  05 15  -14.5665 17949.6 -13567.2 -37.0838 22500.1
 03 11 2015  05 16  -14.5654 17950.6 -13567.6 -37.0830 22501.1
 03 11 2015  05 17  -14.5649 17951.3 -13567.0 -37.0807 22501.4
 03 11 2015  05 18  -14.5658 17951.4 -13567.0 -37.0805 22501.5
 03 11 2015  05 19  -14.5666 17951.6 -13567.7 -37.0815 22502.1
 03 11 2015  05 20  -14.5689 17951.6 -13566.8 -37.0799 22501.5
 03 11 2015  05 21  -14.5695 17952.4 -13567.5 -37.0801 22502.6
 03 11 2015  05 22  -14.5700 17952.6 -13567.2 -37.0790 22502.5
 03 11 2015  05 23  -14.5716 17952.5 -13567.3 -37.0794 22502.6
 03 11 2015  05 24  -14.5714 17953.8 -13567.1 -37.0771 22503.5
 03 11 2015  05 25  -14.5711 17955.0 -13567.6 -37.0761 22504.7
 03 11 2015  05 26  -14.5701 17955.3 -13566.9 -37.0744 22504.5
 03 11 2015  05 27  -14.5697 17955.8 -13566.9 -37.0736 22505.0
 03 11 2015  05 28  -14.5704 17955.4 -13566.8 -37.0739 22504.5
 03 11 2015  05 29  -14.5702 17955.4 -13566.6 -37.0735 22504.4
 03 11 2015  05 30  -14.5713 17955.4 -13566.0 -37.0723 22504.1
 03 11 2015  05 31  -14.5714 17955.4 -13566.1 -37.0727 22504.1
 03 11 2015  05 32  -14.5719 17955.5 -13566.7 -37.0736 22504.6
 03 11 2015  05 33  -14.5719 17955.8 -13566.3 -37.0723 22504.6
 03 11 2015  05 34  -14.5715 17956.5 -13567.0 -37.0727 22505.6
 03 11 2015  05 35  -14.5710 17957.1 -13566.5 -37.0709 22505.7
 03 11 2015  05 36  -14.5701 17957.9 -13566.1 -37.0687 22506.1
 03 11 2015  05 37  -14.5686 17959.4 -13566.8 -37.0678 22507.8
 03 11 2015  05 38  -14.5672 17961.5 -13566.7 -37.0644 22509.4
 03 11 2015  05 39  -14.5661 17963.7 -13567.1 -37.0619 22511.4
 03 11 2015  05 40  -14.5652 17963.9 -13566.8 -37.0609 22511.3
 03 11 2015  05 41  -14.5650 17963.8 -13566.1 -37.0597 22510.8
 03 11 2015  05 42  -14.5648 17963.8 -13566.1 -37.0597 22510.8
 03 11 2015  05 43  -14.5642 17964.1 -13566.3 -37.0597 22511.1
 03 11 2015  05 44  -14.5635 17963.7 -13566.3 -37.0603 22510.8
 03 11 2015  05 45  -14.5619 17964.1 -13566.3 -37.0597 22511.2
 03 11 2015  05 46  -14.5602 17964.1 -13565.6 -37.0583 22510.8
 03 11 2015  05 47  -14.5589 17964.5 -13565.7 -37.0579 22511.1
 03 11 2015  05 48  -14.5578 17964.2 -13565.4 -37.0577 22510.8
 03 11 2015  05 49  -14.5572 17964.3 -13565.6 -37.0579 22510.9
 03 11 2015  05 50  -14.5565 17964.8 -13565.8 -37.0575 22511.5
 03 11 2015  05 51  -14.5543 17965.6 -13565.8 -37.0563 22512.1
 03 11 2015  05 52  -14.5546 17965.8 -13565.6 -37.0555 22512.1
 03 11 2015  05 53  -14.5541 17965.5 -13565.3 -37.0556 22511.7
 03 11 2015  05 54  -14.5539 17964.9 -13565.4 -37.0566 22511.2
 03 11 2015  05 55  -14.5536 17964.2 -13564.8 -37.0564 22510.3
 03 11 2015  05 56  -14.5529 17964.4 -13565.4 -37.0575 22510.9
 03 11 2015  05 57  -14.5525 17964.7 -13565.0 -37.0560 22510.9
 03 11 2015  05 58  -14.5521 17964.3 -13565.1 -37.0570 22510.6
 03 11 2015  05 59  -14.5517 17965.8 -13565.4 -37.0553 22512.0
 03 11 2015  06 00  -14.5501 17966.7 -13566.2 -37.0556 22513.2
 03 11 2015  06 01  -14.5491 17966.6 -13564.9 -37.0530 22512.3
 03 11 2015  06 02  -14.5494 17965.8 -13565.5 -37.0553 22512.1
 03 11 2015  06 03  -14.5500 17965.0 -13564.5 -37.0547 22510.8
 03 11 2015  06 04  -14.5502 17964.5 -13564.9 -37.0561 22510.7
 03 11 2015  06 05  -14.5504 17963.5 -13564.5 -37.0568 22509.6
 03 11 2015  06 06  -14.5503 17962.2 -13564.9 -37.0596 22508.8
 03 11 2015  06 07  -14.5501 17963.3 -13565.1 -37.0583 22509.8
 03 11 2015  06 08  -14.5487 17965.6 -13565.3 -37.0553 22511.8
 03 11 2015  06 09  -14.5467 17967.2 -13566.0 -37.0543 22513.5
 03 11 2015  06 10  -14.5452 17969.5 -13566.2 -37.0513 22515.4
 03 11 2015  06 11  -14.5435 17971.6 -13566.2 -37.0480 22517.1
 03 11 2015  06 12  -14.5414 17972.7 -13566.0 -37.0459 22517.9
 03 11 2015  06 13  -14.5391 17973.9 -13566.2 -37.0445 22518.9
 03 11 2015  06 14  -14.5376 17974.4 -13565.9 -37.0430 22519.2
 03 11 2015  06 15  -14.5360 17974.8 -13565.8 -37.0422 22519.4
 03 11 2015  06 16  -14.5354 17974.7 -13565.2 -37.0411 22519.0
 03 11 2015  06 17  -14.5344 17974.6 -13564.9 -37.0408 22518.8
 03 11 2015  06 18  -14.5331 17975.1 -13564.9 -37.0399 22519.1
 03 11 2015  06 19  -14.5317 17975.7 -13565.2 -37.0396 22519.7
 03 11 2015  06 20  -14.5303 17976.6 -13565.5 -37.0390 22520.7
 03 11 2015  06 21  -14.5293 17977.8 -13565.1 -37.0362 22521.4
 03 11 2015  06 22  -14.5282 17979.7 -13564.7 -37.0325 22522.6
 03 11 2015  06 23  -14.5263 17982.6 -13565.1 -37.0289 22525.2
 03 11 2015  06 24  -14.5247 17983.9 -13565.3 -37.0272 22526.4
 03 11 2015  06 25  -14.5238 17984.2 -13565.2 -37.0265 22526.5
 03 11 2015  06 26  -14.5239 17983.9 -13564.4 -37.0255 22525.9
 03 11 2015  06 27  -14.5240 17983.7 -13563.6 -37.0242 22525.2
 03 11 2015  06 28  -14.5241 17984.0 -13563.9 -37.0242 22525.6
 03 11 2015  06 29  -14.5247 17984.6 -13563.8 -37.0232 22526.1
 03 11 2015  06 30  -14.5248 17986.3 -13564.0 -37.0209 22527.5
 03 11 2015  06 31  -14.5246 17988.2 -13564.5 -37.0190 22529.4
 03 11 2015  06 32  -14.5250 17989.7 -13564.2 -37.0162 22530.3
 03 11 2015  06 33  -14.5255 17990.3 -13563.9 -37.0146 22530.7
 03 11 2015  06 34  -14.5265 17990.4 -13563.7 -37.0140 22530.6
 03 11 2015  06 35  -14.5271 17990.7 -13563.6 -37.0134 22530.8
 03 11 2015  06 36  -14.5274 17991.2 -13563.6 -37.0127 22531.1
 03 11 2015  06 37  -14.5273 17990.7 -13562.9 -37.0119 22530.4
 03 11 2015  06 38  -14.5281 17991.4 -13562.9 -37.0109 22530.9
 03 11 2015  06 39  -14.5275 17993.8 -13563.3 -37.0079 22533.1
 03 11 2015  06 40  -14.5272 17993.1 -13562.8 -37.0082 22532.2
 03 11 2015  06 41  -14.5283 17992.6 -13562.6 -37.0086 22531.7
 03 11 2015  06 42  -14.5297 17994.0 -13562.8 -37.0067 22532.9
 03 11 2015  06 43  -14.5305 17994.9 -13562.8 -37.0053 22533.7
 03 11 2015  06 44  -14.5318 17995.6 -13562.5 -37.0037 22534.0
 03 11 2015  06 45  -14.5320 17996.9 -13563.0 -37.0027 22535.4
 03 11 2015  06 46  -14.5318 17996.3 -13562.5 -37.0027 22534.6
 03 11 2015  06 47  -14.5329 17994.3 -13562.1 -37.0050 22532.7
 03 11 2015  06 48  -14.5349 17992.6 -13561.5 -37.0062 22531.1
 03 11 2015  06 49  -14.5359 17990.5 -13560.7 -37.0078 22528.9
 03 11 2015  06 50  -14.5391 17985.9 -13559.9 -37.0133 22524.8
 03 11 2015  06 51  -14.5443 17983.8 -13560.4 -37.0174 22523.4
 03 11 2015  06 52  -14.5448 17986.7 -13561.5 -37.0153 22526.3
 03 11 2015  06 53  -14.5422 17988.6 -13562.4 -37.0141 22528.4
 03 11 2015  06 54  -14.5402 17987.4 -13562.0 -37.0152 22527.2
 03 11 2015  06 55  -14.5378 17984.6 -13561.5 -37.0185 22524.6
 03 11 2015  06 56  -14.5392 17982.2 -13561.2 -37.0215 22522.5
 03 11 2015  06 57  -14.5403 17983.0 -13561.9 -37.0216 22523.6
 03 11 2015  06 58  -14.5404 17984.6 -13562.4 -37.0202 22525.2
 03 11 2015  06 59  -14.5385 17985.8 -13562.9 -37.0195 22526.5
 03 11 2015  07 00  -14.5358 17985.4 -13562.7 -37.0197 22526.0
 03 11 2015  07 01  -14.5348 17985.2 -13562.7 -37.0201 22525.8
 03 11 2015  07 02  -14.5338 17984.9 -13562.7 -37.0204 22525.6
 03 11 2015  07 03  -14.5314 17985.4 -13562.8 -37.0199 22526.1
 03 11 2015  07 04  -14.5308 17987.9 -13563.6 -37.0176 22528.6
 03 11 2015  07 05  -14.5318 17991.2 -13564.3 -37.0139 22531.6
 03 11 2015  07 06  -14.5316 17992.1 -13564.0 -37.0122 22532.1
 03 11 2015  07 07  -14.5341 17989.5 -13562.9 -37.0139 22529.4
 03 11 2015  07 08  -14.5398 17987.4 -13562.2 -37.0157 22527.3
 03 11 2015  07 09  -14.5455 17988.1 -13562.5 -37.0151 22528.0
 03 11 2015  07 10  -14.5460 17988.4 -13562.5 -37.0146 22528.3
 03 11 2015  07 11  -14.5509 17987.6 -13562.1 -37.0151 22527.5
 03 11 2015  07 12  -14.5555 17989.2 -13562.2 -37.0130 22528.7
 03 11 2015  07 13  -14.5594 17990.6 -13562.8 -37.0119 22530.2
 03 11 2015  07 14  -14.5613 17991.5 -13562.3 -37.0095 22530.6
 03 11 2015  07 15  -14.5634 17991.3 -13562.1 -37.0095 22530.4
 03 11 2015  07 16  -14.5625 17990.7 -13561.7 -37.0095 22529.6
 03 11 2015  07 17  -14.5635 17989.7 -13561.5 -37.0106 22528.7
 03 11 2015  07 18  -14.5627 17989.0 -13561.4 -37.0115 22528.1
 03 11 2015  07 19  -14.5635 17989.4 -13561.9 -37.0118 22528.7
 03 11 2015  07 20  -14.5634 17992.0 -13562.2 -37.0086 22530.9
 03 11 2015  07 21  -14.5625 17995.4 -13562.8 -37.0046 22534.1
 03 11 2015  07 22  -14.5621 17996.4 -13562.3 -37.0021 22534.6
 03 11 2015  07 23  -14.5611 17995.1 -13561.8 -37.0030 22533.2
 03 11 2015  07 24  -14.5633 17993.1 -13560.9 -37.0042 22531.1
 03 11 2015  07 25  -14.5652 17993.2 -13561.0 -37.0042 22531.2
 03 11 2015  07 26  -14.5688 17996.6 -13561.6 -37.0003 22534.3
 03 11 2015  07 27  -14.5661 18001.1 -13562.5 -36.9953 22538.5
 03 11 2015  07 28  -14.5655 18003.9 -13562.2 -36.9903 22540.5
 03 11 2015  07 29  -14.5597 18006.2 -13562.1 -36.9866 22542.2
 03 11 2015  07 30  -14.5622 18002.1 -13560.4 -36.9895 22538.0
 03 11 2015  07 31  -14.5653 18002.1 -13560.2 -36.9891 22537.9
 03 11 2015  07 32  -14.5664 18003.1 -13560.3 -36.9876 22538.7
 03 11 2015  07 33  -14.5640 18001.4 -13559.5 -36.9887 22536.9
 03 11 2015  07 34  -14.5668 18003.4 -13559.9 -36.9865 22538.7
 03 11 2015  07 35  -14.5680 18010.5 -13561.1 -36.9780 22545.1
 03 11 2015  07 36  -14.5657 18018.6 -13562.7 -36.9688 22552.5
 03 11 2015  07 37  -14.5610 18021.6 -13562.2 -36.9634 22554.6
 03 11 2015  07 38  -14.5629 18021.3 -13560.5 -36.9602 22553.3
 03 11 2015  07 39  -14.5651 18021.1 -13560.1 -36.9597 22553.0
 03 11 2015  07 40  -14.5657 18019.6 -13558.9 -36.9597 22551.1
 03 11 2015  07 41  -14.5670 18019.1 -13558.8 -36.9603 22550.6
 03 11 2015  07 42  -14.5688 18019.7 -13558.3 -36.9583 22550.7
 03 11 2015  07 43  -14.5695 18018.9 -13557.9 -36.9588 22549.9
 03 11 2015  07 44  -14.5694 18017.7 -13557.9 -36.9605 22548.9
 03 11 2015  07 45  -14.5711 18014.7 -13556.5 -36.9622 22545.7
 03 11 2015  07 46  -14.5717 18013.1 -13556.6 -36.9648 22544.5
 03 11 2015  07 47  -14.5709 18014.4 -13556.7 -36.9630 22545.6
 03 11 2015  07 48  -14.5665 18013.7 -13557.4 -36.9658 22545.4
 03 11 2015  07 49  -14.5652 18017.5 -13557.7 -36.9603 22548.7
 03 11 2015  07 50  -14.5657 18020.0 -13559.0 -36.9592 22551.4
 03 11 2015  07 51  -14.5629 18022.1 -13558.7 -36.9554 22553.0
 03 11 2015  07 52  -14.5592 18020.4 -13558.0 -36.9567 22551.1
 03 11 2015  07 53  -14.5538 18019.0 -13557.5 -36.9577 22549.7
 03 11 2015  07 54  -14.5527 18013.5 -13555.7 -36.9625 22544.2
 03 11 2015  07 55  -14.5472 18005.9 -13555.1 -36.9728 22537.8
 03 11 2015  07 56  -14.5483 17995.3 -13553.4 -36.9856 22528.4
 03 11 2015  07 57  -14.5617 17982.8 -13552.8 -37.0037 22518.0
 03 11 2015  07 58  -14.5667 17985.1 -13555.3 -37.0050 22521.3
 03 11 2015  07 59  -14.5604 17985.1 -13556.2 -37.0070 22521.9
 03 11 2015  08 00  -14.5600 17978.0 -13556.1 -37.0176 22516.1
 03 11 2015  08 01  -14.5609 17969.7 -13555.8 -37.0297 22509.3
 03 11 2015  08 02  -14.5659 17957.8 -13554.6 -37.0454 22499.1
 03 11 2015  08 03  -14.5799 17953.2 -13555.7 -37.0548 22496.1
 03 11 2015  08 04  -14.5844 17954.0 -13557.8 -37.0579 22498.0
 03 11 2015  08 05  -14.5826 17959.0 -13559.9 -37.0545 22503.2
 03 11 2015  08 06  -14.5768 17964.4 -13562.0 -37.0505 22508.8
 03 11 2015  08 07  -14.5718 17968.9 -13563.0 -37.0455 22513.0
 03 11 2015  08 08  -14.5681 17974.9 -13564.1 -37.0385 22518.5
 03 11 2015  08 09  -14.5582 17972.9 -13563.1 -37.0398 22516.3
 03 11 2015  08 10  -14.5655 17964.6 -13560.9 -37.0480 22508.3
 03 11 2015  08 11  -14.5630 17952.2 -13558.8 -37.0625 22497.2
 03 11 2015  08 12  -14.5777 17949.2 -13559.5 -37.0687 22495.1
 03 11 2015  08 13  -14.5786 17950.6 -13560.9 -37.0694 22497.1
 03 11 2015  08 14  -14.5737 17951.5 -13562.0 -37.0701 22498.5
 03 11 2015  08 15  -14.5713 17947.3 -13561.6 -37.0758 22495.0
 03 11 2015  08 16  -14.5693 17946.0 -13562.2 -37.0791 22494.2
 03 11 2015  08 17  -14.5654 17944.0 -13562.7 -37.0832 22492.9
 03 11 2015  08 18  -14.5678 17942.7 -13563.4 -37.0866 22492.4
 03 11 2015  08 19  -14.5647 17943.1 -13564.0 -37.0872 22493.1
 03 11 2015  08 20  -14.5615 17944.7 -13565.2 -37.0873 22495.0
 03 11 2015  08 21  -14.5578 17943.7 -13565.3 -37.0890 22494.3
 03 11 2015  08 22  -14.5576 17943.8 -13565.7 -37.0896 22494.7
 03 11 2015  08 23  -14.5608 17943.5 -13565.7 -37.0902 22494.4
 03 11 2015  08 24  -14.5632 17944.9 -13566.2 -37.0891 22495.8
 03 11 2015  08 25  -14.5656 17945.2 -13565.9 -37.0879 22495.9
 03 11 2015  08 26  -14.5694 17944.7 -13565.4 -37.0877 22495.2
 03 11 2015  08 27  -14.5731 17944.1 -13566.2 -37.0902 22495.2
 03 11 2015  08 28  -14.5751 17944.1 -13566.1 -37.0899 22495.1
 03 11 2015  08 29  -14.5772 17944.6 -13566.2 -37.0893 22495.6
 03 11 2015  08 30  -14.5788 17944.8 -13565.7 -37.0880 22495.4
 03 11 2015  08 31  -14.5793 17945.5 -13565.5 -37.0866 22495.9
 03 11 2015  08 32  -14.5793 17946.0 -13564.9 -37.0846 22496.0
 03 11 2015  08 33  -14.5800 17946.0 -13565.2 -37.0850 22496.1
 03 11 2015  08 34  -14.5805 17945.3 -13564.6 -37.0851 22495.1
 03 11 2015  08 35  -14.5823 17944.1 -13564.1 -37.0858 22493.9
 03 11 2015  08 36  -14.5837 17944.2 -13563.6 -37.0848 22493.7
 03 11 2015  08 37  -14.5818 17943.6 -13563.9 -37.0861 22493.4
 03 11 2015  08 38  -14.5821 17942.7 -13563.4 -37.0866 22492.4
 03 11 2015  08 39  -14.5822 17941.4 -13563.6 -37.0889 22491.5
 03 11 2015  08 40  -14.5826 17941.0 -13563.6 -37.0897 22491.1
 03 11 2015  08 41  -14.5816 17941.8 -13563.9 -37.0890 22491.9
 03 11 2015  08 42  -14.5797 17942.3 -13563.9 -37.0881 22492.3
 03 11 2015  08 43  -14.5745 17942.3 -13563.2 -37.0867 22491.9
 03 11 2015  08 44  -14.5668 17942.8 -13563.5 -37.0865 22492.5
 03 11 2015  08 45  -14.5604 17942.7 -13563.0 -37.0858 22492.1
 03 11 2015  08 46  -14.5546 17942.7 -13563.3 -37.0864 22492.3
 03 11 2015  08 47  -14.5488 17942.3 -13562.6 -37.0856 22491.6
 03 11 2015  08 48  -14.5437 17942.8 -13563.3 -37.0862 22492.3
 03 11 2015  08 49  -14.5364 17943.3 -13563.0 -37.0847 22492.6
 03 11 2015  08 50  -14.5314 17944.2 -13563.4 -37.0843 22493.6
 03 11 2015  08 51  -14.5293 17943.9 -13562.9 -37.0839 22493.0
 03 11 2015  08 52  -14.5257 17944.2 -13562.7 -37.0828 22493.1
 03 11 2015  08 53  -14.5219 17944.7 -13563.7 -37.0841 22494.1
 03 11 2015  08 54  -14.5196 17944.9 -13563.5 -37.0833 22494.2
 03 11 2015  08 55  -14.5167 17945.2 -13563.4 -37.0828 22494.4
 03 11 2015  08 56  -14.5112 17944.0 -13563.5 -37.0848 22493.4
 03 11 2015  08 57  -14.5093 17942.9 -13563.5 -37.0865 22492.5
 03 11 2015  08 58  -14.5138 17941.0 -13563.7 -37.0898 22491.2
 03 11 2015  08 59  -14.5157 17940.4 -13564.0 -37.0914 22490.8
 03 11 2015  09 00  -14.5156 17940.1 -13564.4 -37.0927 22490.9
 03 11 2015  09 01  -14.5128 17939.8 -13564.8 -37.0939 22490.9
 03 11 2015  09 02  -14.5059 17940.2 -13565.9 -37.0955 22491.9
 03 11 2015  09 03  -14.5066 17941.2 -13566.1 -37.0945 22492.8
 03 11 2015  09 04  -14.5114 17941.1 -13566.1 -37.0945 22492.8
 03 11 2015  09 05  -14.5109 17940.4 -13566.3 -37.0960 22492.2
 03 11 2015  09 06  -14.5109 17940.4 -13566.3 -37.0960 22492.3
 03 11 2015  09 07  -14.5104 17940.4 -13566.1 -37.0956 22492.2
 03 11 2015  09 08  -14.5147 17940.3 -13566.6 -37.0967 22492.4
 03 11 2015  09 09  -14.5227 17940.2 -13566.8 -37.0973 22492.4
 03 11 2015  09 10  -14.5242 17940.5 -13566.9 -37.0970 22492.7
 03 11 2015  09 11  -14.5256 17940.9 -13566.9 -37.0965 22493.1
 03 11 2015  09 12  -14.5282 17940.9 -13567.2 -37.0971 22493.2
 03 11 2015  09 13  -14.5328 17940.5 -13567.0 -37.0972 22492.8
 03 11 2015  09 14  -14.5336 17940.5 -13566.6 -37.0964 22492.5
 03 11 2015  09 15  -14.5377 17941.0 -13567.0 -37.0966 22493.2
 03 11 2015  09 16  -14.5431 17940.4 -13566.9 -37.0972 22492.6
 03 11 2015  09 17  -14.5455 17939.3 -13566.5 -37.0982 22491.5
 03 11 2015  09 18  -14.5451 17939.6 -13566.6 -37.0979 22491.8
 03 11 2015  09 19  -14.5439 17940.1 -13567.2 -37.0983 22492.5
 03 11 2015  09 20  -14.5440 17939.8 -13567.7 -37.0999 22492.6
 03 11 2015  09 21  -14.5440 17939.3 -13567.3 -37.0996 22492.0
 03 11 2015  09 22  -14.5441 17939.6 -13566.9 -37.0984 22492.0
 03 11 2015  09 23  -14.5440 17939.2 -13568.0 -37.1013 22492.4
 03 11 2015  09 24  -14.5381 17938.0 -13567.3 -37.1018 22490.9
 03 11 2015  09 25  -14.5361 17937.5 -13567.0 -37.1019 22490.4
 03 11 2015  09 26  -14.5360 17937.8 -13567.7 -37.1028 22491.0
 03 11 2015  09 27  -14.5345 17937.9 -13567.8 -37.1029 22491.1
 03 11 2015  09 28  -14.5292 17937.9 -13568.0 -37.1034 22491.3
 03 11 2015  09 29  -14.5192 17938.5 -13568.1 -37.1025 22491.9
 03 11 2015  09 30  -14.5150 17939.5 -13568.5 -37.1019 22492.9
 03 11 2015  09 31  -14.5170 17940.1 -13568.6 -37.1011 22493.4
 03 11 2015  09 32  -14.5186 17939.7 -13568.7 -37.1021 22493.2
 03 11 2015  09 33  -14.5172 17939.3 -13568.2 -37.1015 22492.5
 03 11 2015  09 34  -14.5186 17939.7 -13568.5 -37.1015 22493.0
 03 11 2015  09 35  -14.5198 17940.5 -13569.3 -37.1018 22494.2
 03 11 2015  09 36  -14.5198 17940.1 -13568.6 -37.1011 22493.4
 03 11 2015  09 37  -14.5194 17940.1 -13569.2 -37.1024 22493.8
 03 11 2015  09 38  -14.5227 17940.9 -13569.2 -37.1012 22494.4
 03 11 2015  09 39  -14.5245 17941.9 -13569.3 -37.0999 22495.3
 03 11 2015  09 40  -14.5235 17942.8 -13569.7 -37.0993 22496.2
 03 11 2015  09 41  -14.5244 17944.0 -13569.3 -37.0966 22497.0
 03 11 2015  09 42  -14.5263 17944.3 -13568.6 -37.0948 22496.8
 03 11 2015  09 43  -14.5293 17944.2 -13569.5 -37.0967 22497.2
 03 11 2015  09 44  -14.5313 17944.0 -13569.1 -37.0963 22496.8
 03 11 2015  09 45  -14.5324 17944.4 -13569.8 -37.0970 22497.6
 03 11 2015  09 46  -14.5320 17944.6 -13568.5 -37.0941 22497.0
 03 11 2015  09 47  -14.5329 17945.3 -13568.6 -37.0931 22497.5
 03 11 2015  09 48  -14.5318 17945.4 -13569.1 -37.0941 22497.9
 03 11 2015  09 49  -14.5279 17944.5 -13569.2 -37.0956 22497.2
 03 11 2015  09 50  -14.5249 17944.1 -13568.5 -37.0947 22496.6
 03 11 2015  09 51  -14.5248 17944.5 -13569.0 -37.0952 22497.2
 03 11 2015  09 52  -14.5241 17945.1 -13568.8 -37.0940 22497.5
 03 11 2015  09 53  -14.5209 17944.9 -13569.2 -37.0950 22497.6
 03 11 2015  09 54  -14.5184 17944.4 -13569.4 -37.0960 22497.3
 03 11 2015  09 55  -14.5179 17944.6 -13569.3 -37.0957 22497.4
 03 11 2015  09 56  -14.5162 17945.1 -13570.0 -37.0963 22498.3
 03 11 2015  09 57  -14.5128 17946.2 -13570.0 -37.0945 22499.2
 03 11 2015  09 58  -14.5099 17947.3 -13570.3 -37.0935 22500.2
 03 11 2015  09 59  -14.5089 17947.9 -13570.3 -37.0927 22500.6
 03 11 2015  10 00  -14.5093 17948.4 -13570.2 -37.0917 22501.1
 03 11 2015  10 01  -14.5116 17948.9 -13570.6 -37.0917 22501.6
 03 11 2015  10 02  -14.5102 17948.6 -13570.4 -37.0917 22501.3
 03 11 2015  10 03  -14.5081 17947.9 -13570.2 -37.0924 22500.5
 03 11 2015  10 04  -14.5057 17947.3 -13570.5 -37.0939 22500.3
 03 11 2015  10 05  -14.5043 17947.4 -13570.1 -37.0930 22500.2
 03 11 2015  10 06  -14.5035 17948.1 -13570.2 -37.0920 22500.8
 03 11 2015  10 07  -14.5029 17948.4 -13570.6 -37.0924 22501.2
 03 11 2015  10 08  -14.5026 17948.8 -13570.8 -37.0922 22501.6
 03 11 2015  10 09  -14.4974 17949.7 -13570.8 -37.0909 22502.4
 03 11 2015  10 10  -14.4943 17950.7 -13570.9 -37.0896 22503.2
 03 11 2015  10 11  -14.4919 17951.8 -13571.2 -37.0885 22504.3
 03 11 2015  10 12  -14.4905 17952.1 -13571.0 -37.0876 22504.4
 03 11 2015  10 13  -14.4914 17953.3 -13571.2 -37.0862 22505.6
 03 11 2015  10 14  -14.4914 17954.6 -13571.9 -37.0856 22506.9
 03 11 2015  10 15  -14.4913 17955.9 -13571.7 -37.0831 22507.9
 03 11 2015  10 16  -14.4922 17956.2 -13572.3 -37.0840 22508.5
 03 11 2015  10 17  -14.4934 17956.7 -13571.4 -37.0814 22508.3
 03 11 2015  10 18  -14.4944 17957.7 -13571.2 -37.0794 22509.1
 03 11 2015  10 19  -14.4942 17957.9 -13571.6 -37.0799 22509.4
 03 11 2015  10 20  -14.4942 17958.5 -13571.5 -37.0789 22509.9
 03 11 2015  10 21  -14.4928 17958.9 -13571.6 -37.0783 22510.3
 03 11 2015  10 22  -14.4933 17958.1 -13571.2 -37.0788 22509.4
 03 11 2015  10 23  -14.4922 17957.1 -13570.8 -37.0794 22508.3
 03 11 2015  10 24  -14.4946 17954.8 -13570.8 -37.0831 22506.5
 03 11 2015  10 25  -14.4974 17953.5 -13571.6 -37.0867 22505.9
 03 11 2015  10 26  -14.4972 17954.2 -13571.6 -37.0856 22506.5
 03 11 2015  10 27  -14.4924 17953.9 -13571.7 -37.0862 22506.3
 03 11 2015  10 28  -14.4922 17953.1 -13573.1 -37.0903 22506.5
 03 11 2015  10 29  -14.4930 17952.8 -13572.9 -37.0902 22506.2
 03 11 2015  10 30  -14.4944 17954.4 -13572.8 -37.0877 22507.4
 03 11 2015  10 31  -14.4937 17955.0 -13573.2 -37.0876 22508.1
 03 11 2015  10 32  -14.4936 17955.0 -13573.5 -37.0883 22508.2
 03 11 2015  10 33  -14.4940 17955.0 -13573.4 -37.0881 22508.2
 03 11 2015  10 34  -14.4943 17955.9 -13573.6 -37.0869 22509.0
 03 11 2015  10 35  -14.4927 17956.8 -13574.1 -37.0867 22510.0
 03 11 2015  10 36  -14.4927 17956.7 -13573.8 -37.0862 22509.8
 03 11 2015  10 37  -14.4944 17956.3 -13573.2 -37.0856 22509.1
 03 11 2015  10 38  -14.4968 17958.0 -13573.8 -37.0842 22510.8
 03 11 2015  10 39  -14.4981 17958.5 -13572.9 -37.0815 22510.7
 03 11 2015  10 40  -14.4997 17959.5 -13572.8 -37.0799 22511.4
 03 11 2015  10 41  -14.5024 17962.1 -13572.8 -37.0760 22513.5
 03 11 2015  10 42  -14.5034 17965.1 -13573.2 -37.0722 22516.1
 03 11 2015  10 43  -14.5035 17966.5 -13572.8 -37.0691 22517.0
 03 11 2015  10 44  -14.5042 17968.7 -13572.6 -37.0655 22518.6
 03 11 2015  10 45  -14.5046 17970.4 -13571.9 -37.0613 22519.6
 03 11 2015  10 46  -14.5049 17971.1 -13570.4 -37.0572 22519.3
 03 11 2015  10 47  -14.5071 17971.3 -13570.3 -37.0567 22519.3
 03 11 2015  10 48  -14.5070 17970.2 -13569.6 -37.0569 22518.0
 03 11 2015  10 49  -14.5054 17968.7 -13569.3 -37.0586 22516.7
 03 11 2015  10 50  -14.5038 17967.9 -13568.5 -37.0583 22515.6
 03 11 2015  10 51  -14.5069 17967.4 -13569.3 -37.0608 22515.6
 03 11 2015  10 52  -14.5118 17966.9 -13568.5 -37.0598 22514.8
 03 11 2015  10 53  -14.5160 17967.9 -13569.6 -37.0605 22516.2
 03 11 2015  10 54  -14.5169 17968.0 -13569.6 -37.0604 22516.3
 03 11 2015  10 55  -14.5175 17968.3 -13569.5 -37.0597 22516.4
 03 11 2015  10 56  -14.5175 17969.5 -13569.7 -37.0583 22517.6
 03 11 2015  10 57  -14.5165 17969.7 -13569.6 -37.0577 22517.6
 03 11 2015  10 58  -14.5173 17971.4 -13569.7 -37.0553 22519.0
 03 11 2015  10 59  -14.5165 17970.5 -13568.8 -37.0550 22517.8
 03 11 2015  11 00  -14.5160 17970.0 -13569.2 -37.0564 22517.7
 03 11 2015  11 01  -14.5131 17971.1 -13568.9 -37.0541 22518.4
 03 11 2015  11 02  -14.5104 17970.4 -13568.6 -37.0547 22517.7
 03 11 2015  11 03  -14.5110 17970.1 -13568.6 -37.0550 22517.4
 03 11 2015  11 04  -14.5112 17971.1 -13568.5 -37.0534 22518.1
 03 11 2015  11 05  -14.5117 17972.0 -13568.9 -37.0528 22519.1
 03 11 2015  11 06  -14.5120 17972.8 -13569.1 -37.0520 22519.8
 03 11 2015  11 07  -14.5125 17972.2 -13567.8 -37.0501 22518.6
 03 11 2015  11 08  -14.5130 17973.1 -13568.1 -37.0494 22519.4
 03 11 2015  11 09  -14.5138 17973.2 -13568.3 -37.0497 22519.7
 03 11 2015  11 10  -14.5131 17972.0 -13567.5 -37.0501 22518.2
 03 11 2015  11 11  -14.5144 17971.7 -13568.1 -37.0515 22518.3
 03 11 2015  11 12  -14.5168 17970.5 -13566.4 -37.0500 22516.4
 03 11 2015  11 13  -14.5178 17968.9 -13567.1 -37.0540 22515.5
 03 11 2015  11 14  -14.5206 17967.7 -13566.6 -37.0547 22514.2
 03 11 2015  11 15  -14.5206 17967.2 -13566.7 -37.0557 22514.0
 03 11 2015  11 16  -14.5219 17966.1 -13566.3 -37.0564 22512.8
 03 11 2015  11 17  -14.5228 17964.1 -13566.2 -37.0594 22511.2
 03 11 2015  11 18  -14.5241 17963.2 -13567.3 -37.0630 22511.0
 03 11 2015  11 19  -14.5278 17962.1 -13566.4 -37.0630 22509.6
 03 11 2015  11 20  -14.5302 17959.6 -13566.9 -37.0678 22508.0
 03 11 2015  11 21  -14.5308 17962.2 -13568.8 -37.0676 22511.2
 03 11 2015  11 22  -14.5126 17960.2 -13569.9 -37.0730 22510.2
 03 11 2015  11 23  -14.5384 17965.6 -13568.5 -37.0618 22513.8
 03 11 2015  11 24  -14.5195 17972.1 -13569.6 -37.0541 22519.6
 03 11 2015  11 25  -14.5206 17975.3 -13569.9 -37.0497 22522.3
 03 11 2015  11 26  -14.5241 17979.0 -13570.1 -37.0446 22525.3
 03 11 2015  11 27  -14.5270 17981.7 -13568.8 -37.0378 22526.7
 03 11 2015  11 28  -14.5314 17979.3 -13567.6 -37.0390 22524.1
 03 11 2015  11 29  -14.5323 17977.5 -13566.4 -37.0393 22522.0
 03 11 2015  11 30  -14.5325 17975.8 -13566.3 -37.0418 22520.5
 03 11 2015  11 31  -14.5365 17970.0 -13565.6 -37.0491 22515.5
 03 11 2015  11 32  -14.5409 17961.4 -13562.7 -37.0564 22506.9
 03 11 2015  11 33  -14.5455 17960.6 -13565.0 -37.0624 22507.7
 03 11 2015  11 34  -14.5473 17957.8 -13566.1 -37.0690 22506.0
 03 11 2015  11 35  -14.5502 17954.2 -13566.6 -37.0754 22503.4
 03 11 2015  11 36  -14.5515 17950.5 -13567.4 -37.0827 22501.0
 03 11 2015  11 37  -14.5527 17949.4 -13568.1 -37.0858 22500.6
 03 11 2015  11 38  -14.5566 17948.3 -13569.0 -37.0893 22500.2
 03 11 2015  11 39  -14.5554 17947.1 -13569.7 -37.0927 22499.7
 03 11 2015  11 40  -14.5527 17946.2 -13571.3 -37.0972 22499.9
 03 11 2015  11 41  -14.5532 17944.5 -13571.7 -37.1007 22498.8
 03 11 2015  11 42  -14.5528 17943.7 -13572.2 -37.1028 22498.5
 03 11 2015  11 43  -14.5536 17943.2 -13573.1 -37.1055 22498.6
 03 11 2015  11 44  -14.5541 17945.0 -13574.9 -37.1064 22501.1
 03 11 2015  11 45  -14.5538 17945.6 -13574.5 -37.1046 22501.4
 03 11 2015  11 46  -14.5515 17950.2 -13576.6 -37.1020 22506.3
 03 11 2015  11 47  -14.5470 17953.2 -13576.1 -37.0964 22508.4
 03 11 2015  11 48  -14.5467 17953.9 -13576.9 -37.0968 22509.5
 03 11 2015  11 49  -14.5445 17954.4 -13575.3 -37.0928 22508.9
 03 11 2015  11 50  -14.5431 17955.0 -13576.4 -37.0941 22510.0
 03 11 2015  11 51  -14.5410 17954.1 -13576.0 -37.0946 22509.0
 03 11 2015  11 52  -14.5388 17954.0 -13574.2 -37.0911 22507.9
 03 11 2015  11 53  -14.5358 17954.2 -13573.6 -37.0895 22507.7
 03 11 2015  11 54  -14.5360 17954.4 -13576.3 -37.0950 22509.5
 03 11 2015  11 55  -14.5446 17954.5 -13569.4 -37.0805 22505.4
 03 11 2015  11 56  -14.5407 17953.5 -13575.4 -37.0944 22508.3
 03 11 2015  11 57  -14.5487 17952.7 -13565.9 -37.0763 22501.8
 03 11 2015  11 58  -14.5439 17954.3 -13575.7 -37.0938 22509.1
 03 11 2015  11 59  -14.5495 17949.8 -13558.9 -37.0666 22495.3
 03 11 2015  12 00  -14.5432 17958.6 -13576.5 -37.0887 22513.0
 03 11 2015  12 01  -14.5616 17951.5 -13557.4 -37.0609 22495.8
 03 11 2015  12 02  -14.5349 17959.2 -13568.6 -37.0718 22508.7
 03 11 2015  12 03  -14.5335 17986.7 -13579.0 -37.0508 22536.8
 03 11 2015  12 04  -14.5436 17979.8 -13571.0 -37.0450 22526.5
 03 11 2015  12 05  -14.5559 17955.6 -13572.2 -37.0848 22508.0
 03 11 2015  12 06  -14.5564 17957.3 -13573.8 -37.0852 22510.3
 03 11 2015  12 07  -14.5530 17970.3 -13569.5 -37.0566 22518.1
 03 11 2015  12 08  -14.5475 17970.7 -13570.6 -37.0582 22519.0
 03 11 2015  12 09  -14.5445 17965.1 -13572.9 -37.0716 22516.0
 03 11 2015  12 10  -14.5399 17970.6 -13570.5 -37.0581 22518.9
 03 11 2015  12 11  -14.5218 17977.8 -13566.7 -37.0395 22522.4
 03 11 2015  12 12  -14.4936 17995.5 -13560.5 -36.9996 22532.8
 03 11 2015  12 13  -14.4892 17995.2 -13559.0 -36.9971 22531.6
 03 11 2015  12 14  -14.4889 17992.4 -13558.7 -37.0007 22529.2
 03 11 2015  12 15  -14.4920 17990.9 -13558.3 -37.0024 22527.7
 03 11 2015  12 16  -14.4952 17988.2 -13556.5 -37.0028 22524.5
 03 11 2015  12 17  -14.4946 17981.5 -13555.2 -37.0104 22518.4
 03 11 2015  12 18  -14.5334 17954.3 -13561.6 -37.0651 22500.6
 03 11 2015  12 19  -14.5601 17935.4 -13564.9 -37.1008 22487.5
 03 11 2015  12 20  -14.5723 17928.4 -13566.9 -37.1157 22483.1
 03 11 2015  12 21  -14.5779 17927.4 -13567.2 -37.1179 22482.5
 03 11 2015  12 22  -14.5759 17929.7 -13569.5 -37.1190 22485.7
 03 11 2015  12 23  -14.5820 17926.4 -13570.7 -37.1266 22483.8
 03 11 2015  12 24  -14.5803 17927.0 -13571.7 -37.1275 22484.8
 03 11 2015  12 25  -14.5876 17927.4 -13572.1 -37.1279 22485.4
 03 11 2015  12 26  -14.5880 17922.0 -13572.2 -37.1363 22481.2
 03 11 2015  12 27  -14.5920 17922.1 -13573.5 -37.1388 22482.1
 03 11 2015  12 28  -14.5983 17922.6 -13574.6 -37.1403 22483.1
 03 11 2015  12 29  -14.6040 17922.6 -13574.8 -37.1407 22483.2
 03 11 2015  12 30  -14.6076 17921.9 -13574.1 -37.1402 22482.2
 03 11 2015  12 31  -14.6063 17923.1 -13575.2 -37.1407 22483.8
 03 11 2015  12 32  -14.6090 17925.7 -13575.3 -37.1369 22486.0
 03 11 2015  12 33  -14.6096 17923.6 -13574.9 -37.1392 22484.1
 03 11 2015  12 34  -14.6112 17924.7 -13575.3 -37.1384 22485.2
 03 11 2015  12 35  -14.6143 17921.3 -13574.4 -37.1418 22482.0
 03 11 2015  12 36  -14.6159 17922.5 -13574.6 -37.1404 22483.0
 03 11 2015  12 37  -14.6148 17923.7 -13575.1 -37.1395 22484.3
 03 11 2015  12 38  -14.6097 17929.0 -13575.6 -37.1323 22488.8
 03 11 2015  12 39  -14.6064 17932.2 -13576.9 -37.1303 22492.1
 03 11 2015  12 40  -14.6004 17933.7 -13575.6 -37.1251 22492.5
 03 11 2015  12 41  -14.5935 17935.8 -13575.3 -37.1212 22494.0
 03 11 2015  12 42  -14.5822 17936.6 -13574.7 -37.1188 22494.3
 03 11 2015  12 43  -14.5812 17934.3 -13573.6 -37.1202 22491.8
 03 11 2015  12 44  -14.5789 17943.8 -13575.9 -37.1104 22500.7
 03 11 2015  12 45  -14.5699 17948.3 -13575.7 -37.1030 22504.3
 03 11 2015  12 46  -14.5640 17948.3 -13575.4 -37.1023 22504.1
 03 11 2015  12 47  -14.5616 17949.5 -13574.7 -37.0991 22504.6
 03 11 2015  12 48  -14.5637 17944.4 -13572.3 -37.1020 22499.0
 03 11 2015  12 49  -14.5749 17937.1 -13570.3 -37.1093 22492.1
 03 11 2015  12 50  -14.5778 17942.7 -13572.4 -37.1048 22497.8
 03 11 2015  12 51  -14.5771 17947.2 -13573.3 -37.0999 22501.9
 03 11 2015  12 52  -14.5742 17948.8 -13573.6 -37.0980 22503.3
 03 11 2015  12 53  -14.5712 17947.2 -13572.2 -37.0975 22501.3
 03 11 2015  12 54  -14.5735 17943.2 -13570.2 -37.0997 22496.8
 03 11 2015  12 55  -14.5787 17943.2 -13570.6 -37.1005 22497.1
 03 11 2015  12 56  -14.5780 17941.8 -13570.2 -37.1018 22495.7
 03 11 2015  12 57  -14.5783 17943.0 -13570.4 -37.1005 22496.8
 03 11 2015  12 58  -14.5740 17943.0 -13571.8 -37.1032 22497.7
 03 11 2015  12 59  -14.5669 17945.0 -13571.6 -37.0996 22499.2
 03 11 2015  13 00  -14.5694 17944.0 -13572.3 -37.1027 22498.8
 03 11 2015  13 01  -14.5832 17936.6 -13569.6 -37.1086 22491.2
 03 11 2015  13 02  -14.5766 17943.4 -13571.5 -37.1019 22497.8
 03 11 2015  13 03  -14.5733 17942.5 -13571.7 -37.1037 22497.2
 03 11 2015  13 04  -14.5729 17942.0 -13571.8 -37.1047 22496.8
 03 11 2015  13 05  -14.5703 17944.9 -13572.2 -37.1010 22499.4
 03 11 2015  13 06  -14.5656 17944.7 -13570.9 -37.0989 22498.5
 03 11 2015  13 07  -14.5583 17947.0 -13572.0 -37.0974 22501.0
 03 11 2015  13 08  -14.5510 17951.1 -13572.0 -37.0911 22504.3
 03 11 2015  13 09  -14.5480 17948.7 -13572.0 -37.0950 22502.4
 03 11 2015  13 10  -14.5534 17946.1 -13571.1 -37.0970 22499.7
 03 11 2015  13 11  -14.5500 17947.9 -13570.4 -37.0929 22500.7
 03 11 2015  13 12  -14.5446 17950.9 -13571.1 -37.0898 22503.5
 03 11 2015  13 13  -14.5426 17949.3 -13571.3 -37.0926 22502.4
 03 11 2015  13 14  -14.5423 17950.5 -13570.6 -37.0892 22502.9
 03 11 2015  13 15  -14.5366 17953.6 -13570.7 -37.0847 22505.4
 03 11 2015  13 16  -14.5274 17953.2 -13571.1 -37.0862 22505.4
 03 11 2015  13 17  -14.5292 17948.5 -13569.4 -37.0899 22500.6
 03 11 2015  13 18  -14.5293 17949.1 -13569.4 -37.0889 22501.0
 03 11 2015  13 19  -14.5233 17951.4 -13570.6 -37.0878 22503.6
 03 11 2015  13 20  -14.5193 17948.1 -13569.7 -37.0913 22500.5
 03 11 2015  13 21  -14.5232 17944.8 -13568.7 -37.0941 22497.2
 03 11 2015  13 22  -14.5318 17942.5 -13568.8 -37.0977 22495.5
 03 11 2015  13 23  -14.5317 17942.3 -13568.7 -37.0980 22495.2
 03 11 2015  13 24  -14.5418 17938.2 -13568.0 -37.1028 22491.6
 03 11 2015  13 25  -14.5521 17936.2 -13567.6 -37.1051 22489.7
 03 11 2015  13 26  -14.5574 17936.8 -13568.7 -37.1064 22490.8
 03 11 2015  13 27  -14.5561 17939.7 -13570.2 -37.1050 22494.1
 03 11 2015  13 28  -14.5509 17942.0 -13570.6 -37.1023 22496.2
 03 11 2015  13 29  -14.5515 17942.7 -13570.4 -37.1008 22496.5
 03 11 2015  13 30  -14.5532 17943.6 -13569.7 -37.0979 22496.9
 03 11 2015  13 31  -14.5488 17949.0 -13570.8 -37.0919 22501.8
 03 11 2015  13 32  -14.5415 17951.4 -13570.7 -37.0881 22503.7
 03 11 2015  13 33  -14.5402 17948.8 -13569.7 -37.0900 22501.0
 03 11 2015  13 34  -14.5396 17946.7 -13568.5 -37.0907 22498.6
 03 11 2015  13 35  -14.5430 17942.8 -13567.6 -37.0951 22495.0
 03 11 2015  13 36  -14.5525 17938.8 -13567.1 -37.1000 22491.4
 03 11 2015  13 37  -14.5487 17942.0 -13568.1 -37.0972 22494.6
 03 11 2015  13 38  -14.5494 17940.3 -13568.1 -37.0999 22493.3
 03 11 2015  13 39  -14.5483 17940.1 -13568.0 -37.0999 22493.0
 03 11 2015  13 40  -14.5451 17941.0 -13568.3 -37.0991 22493.9
 03 11 2015  13 41  -14.5441 17941.8 -13568.5 -37.0984 22494.7
 03 11 2015  13 42  -14.5421 17943.3 -13568.8 -37.0966 22496.1
 03 11 2015  13 43  -14.5385 17943.2 -13568.3 -37.0958 22495.7
 03 11 2015  13 44  -14.5359 17943.2 -13568.4 -37.0959 22495.8
 03 11 2015  13 45  -14.5460 17943.2 -13567.9 -37.0948 22495.5
 03 11 2015  13 46  -14.5476 17946.3 -13568.5 -37.0915 22498.3
 03 11 2015  13 47  -14.5413 17949.7 -13568.3 -37.0858 22500.9
 03 11 2015  13 48  -14.5247 17958.5 -13569.8 -37.0754 22508.8
 03 11 2015  13 49  -14.5231 17958.7 -13569.0 -37.0735 22508.5
 03 11 2015  13 50  -14.5306 17954.8 -13567.6 -37.0765 22504.5
 03 11 2015  13 51  -14.5300 17955.3 -13567.3 -37.0751 22504.8
 03 11 2015  13 52  -14.5260 17955.5 -13567.2 -37.0747 22504.9
 03 11 2015  13 53  -14.5270 17952.6 -13566.2 -37.0771 22501.9
 03 11 2015  13 54  -14.5205 17954.0 -13566.2 -37.0748 22503.1
 03 11 2015  13 55  -14.5095 17957.7 -13567.1 -37.0710 22506.6
 03 11 2015  13 56  -14.4973 17960.7 -13567.0 -37.0663 22508.9
 03 11 2015  13 57  -14.4841 17965.8 -13568.6 -37.0616 22514.0
 03 11 2015  13 58  -14.4817 17967.2 -13568.1 -37.0584 22514.8
 03 11 2015  13 59  -14.4804 17967.2 -13567.1 -37.0565 22514.1
 03 11 2015  14 00  -14.4785 17968.3 -13566.7 -37.0540 22514.8
 03 11 2015  14 01  -14.4774 17968.4 -13566.5 -37.0534 22514.8
 03 11 2015  14 02  -14.4762 17969.2 -13565.7 -37.0505 22514.9
 03 11 2015  14 03  -14.4699 17970.2 -13565.6 -37.0490 22515.6
 03 11 2015  14 04  -14.4683 17970.1 -13565.5 -37.0488 22515.5
 03 11 2015  14 05  -14.4703 17968.4 -13564.2 -37.0488 22513.3
 03 11 2015  14 06  -14.4732 17965.5 -13564.2 -37.0532 22511.0
 03 11 2015  14 07  -14.4778 17962.6 -13563.3 -37.0560 22508.2
 03 11 2015  14 08  -14.4752 17963.8 -13563.4 -37.0542 22509.2
 03 11 2015  14 09  -14.4723 17964.2 -13564.2 -37.0551 22510.0
 03 11 2015  14 10  -14.4747 17962.1 -13563.6 -37.0572 22508.0
 03 11 2015  14 11  -14.4772 17961.3 -13563.5 -37.0582 22507.3
 03 11 2015  14 12  -14.4813 17959.2 -13562.8 -37.0600 22505.2
 03 11 2015  14 13  -14.4861 17958.6 -13563.1 -37.0616 22504.9
 03 11 2015  14 14  -14.4876 17957.9 -13563.0 -37.0624 22504.2
 03 11 2015  14 15  -14.4894 17956.5 -13563.1 -37.0647 22503.2
 03 11 2015  14 16  -14.4963 17953.0 -13562.7 -37.0694 22500.1
 03 11 2015  14 17  -14.5025 17950.8 -13562.3 -37.0718 22498.2
 03 11 2015  14 18  -14.5045 17950.9 -13562.7 -37.0726 22498.5
 03 11 2015  14 19  -14.5009 17951.7 -13563.6 -37.0731 22499.6
 03 11 2015  14 20  -14.4929 17953.4 -13565.0 -37.0735 22501.9
 03 11 2015  14 21  -14.4794 17954.6 -13565.3 -37.0723 22503.0
 03 11 2015  14 22  -14.4900 17947.4 -13563.9 -37.0804 22496.4
 03 11 2015  14 23  -14.5104 17941.7 -13562.4 -37.0860 22491.0
 03 11 2015  14 24  -14.5164 17939.8 -13563.0 -37.0903 22489.8
 03 11 2015  14 25  -14.5179 17941.1 -13563.6 -37.0895 22491.2
 03 11 2015  14 26  -14.5163 17940.8 -13564.4 -37.0915 22491.4
 03 11 2015  14 27  -14.5130 17940.5 -13564.9 -37.0930 22491.5
 03 11 2015  14 28  -14.5145 17940.5 -13564.8 -37.0927 22491.4
 03 11 2015  14 29  -14.5212 17938.9 -13565.5 -37.0967 22490.5
 03 11 2015  14 30  -14.5219 17938.5 -13565.9 -37.0980 22490.5
 03 11 2015  14 31  -14.5279 17935.4 -13564.9 -37.1008 22487.4
 03 11 2015  14 32  -14.5308 17936.2 -13565.7 -37.1014 22488.5
 03 11 2015  14 33  -14.5344 17937.0 -13565.4 -37.0994 22489.0
 03 11 2015  14 34  -14.5341 17936.8 -13565.9 -37.1006 22489.2
 03 11 2015  14 35  -14.5350 17936.9 -13565.0 -37.0988 22488.7
 03 11 2015  14 36  -14.5355 17936.7 -13565.5 -37.1002 22488.8
 03 11 2015  14 37  -14.5341 17937.9 -13566.1 -37.0994 22490.2
 03 11 2015  14 38  -14.5340 17937.3 -13566.4 -37.1010 22489.8
 03 11 2015  14 39  -14.5352 17936.2 -13565.7 -37.1012 22488.6
 03 11 2015  14 40  -14.5375 17936.8 -13565.4 -37.0998 22488.9
 03 11 2015  14 41  -14.5357 17937.2 -13565.8 -37.1000 22489.4
 03 11 2015  14 42  -14.5354 17936.9 -13565.9 -37.1006 22489.3
 03 11 2015  14 43  -14.5337 17937.5 -13565.3 -37.0984 22489.4
 03 11 2015  14 44  -14.5279 17940.4 -13566.2 -37.0958 22492.2
 03 11 2015  14 45  -14.5235 17941.3 -13566.4 -37.0947 22493.1
 03 11 2015  14 46  -14.5194 17944.6 -13566.5 -37.0900 22495.8
 03 11 2015  14 47  -14.5082 17949.3 -13567.8 -37.0853 22500.2
 03 11 2015  14 48  -14.5042 17948.6 -13566.8 -37.0844 22499.2
 03 11 2015  14 49  -14.5143 17942.4 -13565.3 -37.0909 22493.2
 03 11 2015  14 50  -14.5288 17940.3 -13564.0 -37.0916 22490.8
 03 11 2015  14 51  -14.5293 17945.2 -13564.9 -37.0857 22495.3
 03 11 2015  14 52  -14.5139 17951.2 -13566.0 -37.0790 22500.7
 03 11 2015  14 53  -14.5037 17952.4 -13566.4 -37.0778 22501.9
 03 11 2015  14 54  -14.5091 17950.9 -13565.6 -37.0786 22500.2
 03 11 2015  14 55  -14.5025 17954.2 -13565.9 -37.0739 22503.1
 03 11 2015  14 56  -14.5011 17952.9 -13565.2 -37.0747 22501.6
 03 11 2015  14 57  -14.5023 17953.7 -13565.0 -37.0729 22502.1
 03 11 2015  14 58  -14.5035 17952.1 -13564.7 -37.0748 22500.7
 03 11 2015  14 59  -14.5071 17951.9 -13564.4 -37.0744 22500.3
 03 11 2015  15 00  -14.5017 17956.1 -13565.0 -37.0693 22504.0
 03 11 2015  15 01  -14.4896 17958.1 -13565.7 -37.0677 22506.0
 03 11 2015  15 02  -14.4889 17956.0 -13564.5 -37.0684 22503.7
 03 11 2015  15 03  -14.5021 17952.4 -13563.9 -37.0727 22500.4
 03 11 2015  15 04  -14.5031 17952.8 -13563.7 -37.0718 22500.6
 03 11 2015  15 05  -14.5059 17952.4 -13563.4 -37.0717 22500.0
 03 11 2015  15 06  -14.5131 17950.6 -13563.5 -37.0746 22498.8
 03 11 2015  15 07  -14.5178 17949.4 -13563.4 -37.0764 22497.7
 03 11 2015  15 08  -14.5200 17949.4 -13563.3 -37.0760 22497.7
 03 11 2015  15 09  -14.5243 17949.5 -13563.2 -37.0757 22497.7
 03 11 2015  15 10  -14.5202 17950.9 -13563.3 -37.0739 22498.8
 03 11 2015  15 11  -14.5134 17953.7 -13563.7 -37.0702 22501.3
 03 11 2015  15 12  -14.5101 17955.3 -13563.9 -37.0683 22502.7
 03 11 2015  15 13  -14.5069 17958.1 -13564.1 -37.0644 22505.0
 03 11 2015  15 14  -14.4997 17960.6 -13564.9 -37.0623 22507.5
 03 11 2015  15 15  -14.4991 17959.6 -13563.9 -37.0615 22506.2
 03 11 2015  15 16  -14.5002 17960.9 -13563.3 -37.0584 22506.8
 03 11 2015  15 17  -14.4975 17962.2 -13562.9 -37.0557 22507.7
 03 11 2015  15 18  -14.4946 17961.6 -13562.9 -37.0565 22507.1
 03 11 2015  15 19  -14.5053 17957.2 -13561.8 -37.0612 22503.0
 03 11 2015  15 20  -14.5136 17953.7 -13561.1 -37.0650 22499.8
 03 11 2015  15 21  -14.5178 17952.1 -13560.7 -37.0668 22498.2
 03 11 2015  15 22  -14.5257 17948.3 -13561.0 -37.0731 22495.3
 03 11 2015  15 23  -14.5292 17947.9 -13561.4 -37.0746 22495.3
 03 11 2015  15 24  -14.5281 17950.2 -13562.2 -37.0727 22497.6
 03 11 2015  15 25  -14.5299 17949.4 -13562.3 -37.0740 22497.0
 03 11 2015  15 26  -14.5313 17948.3 -13561.5 -37.0741 22495.7
 03 11 2015  15 27  -14.5286 17949.4 -13561.6 -37.0727 22496.6
 03 11 2015  15 28  -14.5276 17949.6 -13562.3 -37.0738 22497.2
 03 11 2015  15 29  -14.5318 17949.5 -13561.9 -37.0731 22496.9
 03 11 2015  15 30  -14.5328 17950.3 -13562.5 -37.0732 22497.9
 03 11 2015  15 31  -14.5260 17952.0 -13563.0 -37.0716 22499.5
 03 11 2015  15 32  -14.5234 17952.4 -13562.4 -37.0697 22499.5
 03 11 2015  15 33  -14.5249 17953.4 -13562.4 -37.0681 22500.3
 03 11 2015  15 34  -14.5249 17953.0 -13562.4 -37.0687 22500.0
 03 11 2015  15 35  -14.5234 17953.7 -13562.3 -37.0676 22500.4
 03 11 2015  15 36  -14.5241 17953.3 -13561.7 -37.0669 22499.8
 03 11 2015  15 37  -14.5236 17953.2 -13561.8 -37.0672 22499.8
 03 11 2015  15 38  -14.5230 17953.6 -13561.3 -37.0655 22499.8
 03 11 2015  15 39  -14.5217 17954.9 -13561.8 -37.0647 22501.1
 03 11 2015  15 40  -14.5197 17955.5 -13561.5 -37.0631 22501.4
 03 11 2015  15 41  -14.5192 17954.0 -13561.5 -37.0654 22500.2
 03 11 2015  15 42  -14.5222 17953.0 -13561.2 -37.0664 22499.2
 03 11 2015  15 43  -14.5231 17955.0 -13560.6 -37.0622 22500.5
 03 11 2015  15 44  -14.5159 17957.8 -13560.9 -37.0584 22502.9
 03 11 2015  15 45  -14.5102 17959.2 -13561.4 -37.0573 22504.4
 03 11 2015  15 46  -14.5097 17959.6 -13561.1 -37.0560 22504.5
 03 11 2015  15 47  -14.5006 17959.0 -13560.5 -37.0557 22503.7
 03 11 2015  15 48  -14.5080 17957.6 -13560.2 -37.0571 22502.3
 03 11 2015  15 49  -14.5081 17958.7 -13560.2 -37.0555 22503.1
 03 11 2015  15 50  -14.5032 17960.1 -13560.1 -37.0533 22504.2
 03 11 2015  15 51  -14.5033 17959.8 -13560.4 -37.0541 22504.2
 03 11 2015  15 52  -14.5025 17960.2 -13559.5 -37.0517 22504.0
 03 11 2015  15 53  -14.5022 17959.9 -13559.7 -37.0526 22503.8
 03 11 2015  15 54  -14.5024 17959.6 -13559.3 -37.0523 22503.3
 03 11 2015  15 55  -14.5042 17958.6 -13559.2 -37.0537 22502.5
 03 11 2015  15 56  -14.5048 17958.3 -13559.4 -37.0545 22502.4
 03 11 2015  15 57  -14.5040 17958.2 -13558.4 -37.0526 22501.8
 03 11 2015  15 58  -14.5029 17957.7 -13558.9 -37.0543 22501.6
 03 11 2015  15 59  -14.5028 17957.3 -13558.3 -37.0538 22500.9
 03 11 2015  16 00  -14.5033 17957.3 -13558.6 -37.0545 22501.1
 03 11 2015  16 01  -14.5040 17957.2 -13558.1 -37.0536 22500.7
 03 11 2015  16 02  -14.5029 17957.5 -13557.5 -37.0519 22500.7
 03 11 2015  16 03  -14.5046 17956.7 -13557.0 -37.0521 22499.7
 03 11 2015  16 04  -14.5026 17957.3 -13557.3 -37.0517 22500.3
 03 11 2015  16 05  -14.4973 17958.4 -13557.3 -37.0500 22501.2
 03 11 2015  16 06  -14.4970 17958.4 -13557.3 -37.0501 22501.2
 03 11 2015  16 07  -14.4976 17958.1 -13557.3 -37.0506 22500.9
 03 11 2015  16 08  -14.4983 17957.2 -13556.6 -37.0504 22499.8
 03 11 2015  16 09  -14.5003 17957.2 -13556.6 -37.0505 22499.8
 03 11 2015  16 10  -14.4983 17957.5 -13556.6 -37.0500 22500.1
 03 11 2015  16 11  -14.4989 17957.8 -13556.7 -37.0500 22500.4
 03 11 2015  16 12  -14.4990 17957.2 -13557.1 -37.0516 22500.1
 03 11 2015  16 13  -14.5001 17957.0 -13556.5 -37.0506 22499.6
 03 11 2015  16 14  -14.4970 17958.4 -13556.6 -37.0485 22500.8
 03 11 2015  16 15  -14.4939 17959.3 -13556.3 -37.0468 22501.3
 03 11 2015  16 16  -14.4956 17959.1 -13556.3 -37.0471 22501.1
 03 11 2015  16 17  -14.4969 17958.7 -13556.2 -37.0474 22500.8
 03 11 2015  16 18  -14.4991 17958.4 -13556.3 -37.0481 22500.6
 03 11 2015  16 19  -14.4981 17958.6 -13555.4 -37.0458 22500.2
 03 11 2015  16 20  -14.4896 17960.9 -13555.8 -37.0433 22502.3
 03 11 2015  16 21  -14.4898 17961.1 -13556.3 -37.0439 22502.7
 03 11 2015  16 22  -14.4888 17962.0 -13556.4 -37.0427 22503.6
 03 11 2015  16 23  -14.4859 17962.3 -13555.5 -37.0405 22503.2
 03 11 2015  16 24  -14.4818 17962.9 -13555.4 -37.0392 22503.7
 03 11 2015  16 25  -14.4823 17961.3 -13555.7 -37.0423 22502.6
 03 11 2015  16 26  -14.4865 17959.8 -13555.6 -37.0444 22501.3
 03 11 2015  16 27  -14.4876 17959.6 -13554.5 -37.0426 22500.5
 03 11 2015  16 28  -14.4910 17959.2 -13554.8 -37.0438 22500.3
 03 11 2015  16 29  -14.4915 17959.3 -13554.7 -37.0435 22500.4
 03 11 2015  16 30  -14.4896 17959.7 -13554.5 -37.0426 22500.5
 03 11 2015  16 31  -14.4858 17961.2 -13555.2 -37.0416 22502.1
 03 11 2015  16 32  -14.4769 17964.2 -13555.2 -37.0369 22504.6
 03 11 2015  16 33  -14.4696 17965.3 -13555.6 -37.0362 22505.7
 03 11 2015  16 34  -14.4670 17965.9 -13555.2 -37.0344 22505.9
 03 11 2015  16 35  -14.4585 17967.8 -13556.4 -37.0337 22508.2
 03 11 2015  16 36  -14.4525 17968.0 -13556.3 -37.0332 22508.3
 03 11 2015  16 37  -14.4492 17968.4 -13555.9 -37.0318 22508.4
 03 11 2015  16 38  -14.4484 17968.0 -13555.7 -37.0321 22507.9
 03 11 2015  16 39  -14.4466 17967.6 -13555.4 -37.0322 22507.4
 03 11 2015  16 40  -14.4470 17965.2 -13554.7 -37.0343 22505.0
 03 11 2015  16 41  -14.4449 17965.2 -13554.6 -37.0342 22505.0
 03 11 2015  16 42  -14.4428 17965.5 -13555.5 -37.0355 22505.8
 03 11 2015  16 43  -14.4409 17965.4 -13555.0 -37.0347 22505.4
 03 11 2015  16 44  -14.4484 17961.9 -13554.1 -37.0382 22502.1
 03 11 2015  16 45  -14.4502 17961.7 -13553.9 -37.0381 22501.8
 03 11 2015  16 46  -14.4405 17964.7 -13554.8 -37.0354 22504.7
 03 11 2015  16 47  -14.4415 17962.4 -13554.9 -37.0390 22503.0
 03 11 2015  16 48  -14.4553 17957.1 -13553.6 -37.0446 22498.0
 03 11 2015  16 49  -14.4595 17958.4 -13553.6 -37.0426 22498.9
 03 11 2015  16 50  -14.4482 17964.5 -13554.7 -37.0353 22504.5
 03 11 2015  16 51  -14.4393 17965.3 -13555.3 -37.0353 22505.5
 03 11 2015  16 52  -14.4455 17960.3 -13554.3 -37.0411 22500.9
 03 11 2015  16 53  -14.4542 17957.6 -13553.8 -37.0442 22498.4
 03 11 2015  16 54  -14.4642 17954.9 -13553.1 -37.0469 22495.9
 03 11 2015  16 55  -14.4682 17955.2 -13552.6 -37.0455 22495.8
 03 11 2015  16 56  -14.4652 17956.8 -13553.3 -37.0444 22497.5
 03 11 2015  16 57  -14.4590 17958.2 -13553.6 -37.0429 22498.9
 03 11 2015  16 58  -14.4549 17956.5 -13554.2 -37.0466 22497.8
 03 11 2015  16 59  -14.4532 17956.3 -13553.5 -37.0457 22497.2
 03 11 2015  17 00  -14.4525 17954.9 -13553.2 -37.0470 22496.0
 03 11 2015  17 01  -14.4605 17951.8 -13553.3 -37.0520 22493.5
 03 11 2015  17 02  -14.4747 17947.1 -13552.8 -37.0584 22489.5
 03 11 2015  17 03  -14.4771 17947.3 -13552.9 -37.0581 22489.7
 03 11 2015  17 04  -14.4692 17950.9 -13554.0 -37.0550 22493.2
 03 11 2015  17 05  -14.4655 17951.6 -13554.0 -37.0537 22493.8
 03 11 2015  17 06  -14.4702 17949.2 -13553.7 -37.0569 22491.7
 03 11 2015  17 07  -14.4761 17947.4 -13553.8 -37.0599 22490.3
 03 11 2015  17 08  -14.4726 17948.9 -13554.0 -37.0580 22491.7
 03 11 2015  17 09  -14.4689 17950.3 -13554.0 -37.0558 22492.7
 03 11 2015  17 10  -14.4710 17948.9 -13553.8 -37.0576 22491.5
 03 11 2015  17 11  -14.4738 17947.5 -13554.2 -37.0605 22490.6
 03 11 2015  17 12  -14.4755 17946.9 -13553.3 -37.0596 22489.6
 03 11 2015  17 13  -14.4729 17948.3 -13553.9 -37.0586 22491.1
 03 11 2015  17 14  -14.4711 17948.3 -13554.6 -37.0602 22491.6
 03 11 2015  17 15  -14.4739 17946.5 -13554.1 -37.0619 22489.8
 03 11 2015  17 16  -14.4781 17945.5 -13554.1 -37.0635 22489.0
 03 11 2015  17 17  -14.4776 17946.3 -13554.4 -37.0629 22489.8
 03 11 2015  17 18  -14.4732 17947.3 -13554.8 -37.0620 22490.8
 03 11 2015  17 19  -14.4685 17948.4 -13555.0 -37.0608 22491.9
 03 11 2015  17 20  -14.4656 17947.5 -13554.9 -37.0619 22491.1
 03 11 2015  17 21  -14.4742 17942.9 -13553.9 -37.0670 22486.8
 03 11 2015  17 22  -14.4832 17939.9 -13553.6 -37.0709 22484.2
 03 11 2015  17 23  -14.4812 17941.0 -13554.0 -37.0701 22485.4
 03 11 2015  17 24  -14.4742 17942.8 -13555.0 -37.0694 22487.4
 03 11 2015  17 25  -14.4745 17941.6 -13554.5 -37.0702 22486.1
 03 11 2015  17 26  -14.4726 17941.6 -13554.6 -37.0704 22486.2
 03 11 2015  17 27  -14.4660 17944.2 -13554.9 -37.0671 22488.4
 03 11 2015  17 28  -14.4586 17945.9 -13555.9 -37.0664 22490.4
 03 11 2015  17 29  -14.4536 17946.5 -13556.4 -37.0666 22491.2
 03 11 2015  17 30  -14.4523 17946.6 -13556.2 -37.0661 22491.1
 03 11 2015  17 31  -14.4467 17947.7 -13555.6 -37.0631 22491.6
 03 11 2015  17 32  -14.4428 17948.1 -13556.0 -37.0631 22492.2
 03 11 2015  17 33  -14.4430 17947.9 -13556.1 -37.0637 22492.1
 03 11 2015  17 34  -14.4396 17948.4 -13555.9 -37.0626 22492.4
 03 11 2015  17 35  -14.4351 17948.8 -13556.4 -37.0630 22493.0
 03 11 2015  17 36  -14.4351 17947.8 -13556.5 -37.0648 22492.3
 03 11 2015  17 37  -14.4364 17947.0 -13555.8 -37.0645 22491.2
 03 11 2015  17 38  -14.4361 17946.5 -13556.7 -37.0670 22491.3
 03 11 2015  17 39  -14.4355 17945.7 -13556.5 -37.0679 22490.6
 03 11 2015  17 40  -14.4383 17944.1 -13555.8 -37.0689 22488.9
 03 11 2015  17 41  -14.4377 17943.4 -13555.9 -37.0702 22488.4
 03 11 2015  17 42  -14.4335 17943.7 -13556.2 -37.0704 22488.8
 03 11 2015  17 43  -14.4303 17943.6 -13557.0 -37.0723 22489.2
 03 11 2015  17 44  -14.4341 17941.7 -13556.6 -37.0744 22487.5
 03 11 2015  17 45  -14.4368 17941.2 -13556.4 -37.0747 22486.9
 03 11 2015  17 46  -14.4335 17941.0 -13556.9 -37.0760 22487.1
 03 11 2015  17 47  -14.4329 17939.6 -13556.8 -37.0781 22485.9
 03 11 2015  17 48  -14.4302 17940.4 -13557.5 -37.0782 22487.0
 03 11 2015  17 49  -14.4258 17940.5 -13558.2 -37.0794 22487.5
 03 11 2015  17 50  -14.4259 17939.2 -13557.9 -37.0807 22486.2
 03 11 2015  17 51  -14.4283 17938.3 -13558.0 -37.0824 22485.6
 03 11 2015  17 52  -14.4277 17937.7 -13558.2 -37.0837 22485.2
 03 11 2015  17 53  -14.4306 17936.1 -13558.1 -37.0860 22483.9
 03 11 2015  17 54  -14.4329 17935.3 -13558.2 -37.0873 22483.3
 03 11 2015  17 55  -14.4335 17933.8 -13557.9 -37.0890 22481.9
 03 11 2015  17 56  -14.4352 17931.8 -13558.0 -37.0924 22480.5
 03 11 2015  17 57  -14.4340 17932.3 -13558.2 -37.0920 22480.9
 03 11 2015  17 58  -14.4300 17933.5 -13559.3 -37.0924 22482.5
 03 11 2015  17 59  -14.4300 17933.6 -13559.0 -37.0917 22482.5
 03 11 2015  18 00  -14.4291 17932.9 -13558.8 -37.0924 22481.7
 03 11 2015  18 01  -14.4246 17933.3 -13559.3 -37.0926 22482.4
 03 11 2015  18 02  -14.4234 17932.2 -13559.3 -37.0943 22481.5
 03 11 2015  18 03  -14.4259 17931.0 -13559.1 -37.0958 22480.4
 03 11 2015  18 04  -14.4244 17931.1 -13559.5 -37.0964 22480.7
 03 11 2015  18 05  -14.4216 17931.7 -13559.3 -37.0951 22481.1
 03 11 2015  18 06  -14.4214 17931.0 -13560.3 -37.0982 22481.1
 03 11 2015  18 07  -14.4203 17931.0 -13560.1 -37.0979 22481.0
 03 11 2015  18 08  -14.4187 17931.2 -13559.2 -37.0957 22480.6
 03 11 2015  18 09  -14.4175 17930.7 -13559.9 -37.0978 22480.7
 03 11 2015  18 10  -14.4212 17929.3 -13559.8 -37.0999 22479.5
 03 11 2015  18 11  -14.4205 17929.5 -13559.2 -37.0982 22479.3
 03 11 2015  18 12  -14.4190 17929.4 -13560.1 -37.1003 22479.8
 03 11 2015  18 13  -14.4179 17929.8 -13560.0 -37.0996 22480.0
 03 11 2015  18 14  -14.4172 17929.7 -13559.9 -37.0995 22479.9
 03 11 2015  18 15  -14.4181 17927.2 -13558.8 -37.1010 22477.3
 03 11 2015  18 16  -14.4206 17925.9 -13558.7 -37.1029 22476.1
 03 11 2015  18 17  -14.4209 17925.8 -13558.8 -37.1033 22476.2
 03 11 2015  18 18  -14.4209 17924.4 -13558.7 -37.1051 22474.9
 03 11 2015  18 19  -14.4204 17923.6 -13559.5 -37.1080 22474.7
 03 11 2015  18 20  -14.4190 17923.8 -13559.4 -37.1076 22474.9
 03 11 2015  18 21  -14.4175 17924.3 -13560.4 -37.1088 22475.9
 03 11 2015  18 22  -14.4113 17924.9 -13560.3 -37.1076 22476.3
 03 11 2015  18 23  -14.4061 17925.2 -13560.7 -37.1079 22476.8
 03 11 2015  18 24  -14.4063 17923.0 -13560.1 -37.1101 22474.7
 03 11 2015  18 25  -14.4087 17921.6 -13559.7 -37.1114 22473.3
 03 11 2015  18 26  -14.4039 17922.0 -13560.4 -37.1124 22474.0
 03 11 2015  18 27  -14.4033 17921.2 -13560.5 -37.1137 22473.5
 03 11 2015  18 28  -14.4056 17919.4 -13560.5 -37.1164 22472.0
 03 11 2015  18 29  -14.4058 17918.7 -13560.9 -37.1185 22471.7
 03 11 2015  18 30  -14.4060 17917.8 -13560.9 -37.1198 22471.0
 03 11 2015  18 31  -14.4061 17916.7 -13560.7 -37.1211 22470.0
 03 11 2015  18 32  -14.4084 17915.5 -13560.8 -37.1232 22469.1
 03 11 2015  18 33  -14.4114 17913.8 -13560.4 -37.1248 22467.5
 03 11 2015  18 34  -14.4124 17913.3 -13561.2 -37.1273 22467.6
 03 11 2015  18 35  -14.4133 17912.9 -13561.2 -37.1279 22467.2
 03 11 2015  18 36  -14.4141 17912.0 -13561.5 -37.1299 22466.7
 03 11 2015  18 37  -14.4150 17911.1 -13560.9 -37.1301 22465.7
 03 11 2015  18 38  -14.4170 17910.8 -13560.5 -37.1298 22465.2
 03 11 2015  18 39  -14.4136 17910.9 -13561.6 -37.1319 22465.9
 03 11 2015  18 40  -14.4136 17911.2 -13561.4 -37.1309 22466.0
 03 11 2015  18 41  -14.4196 17908.9 -13561.0 -37.1335 22464.0
 03 11 2015  18 42  -14.4255 17905.7 -13560.2 -37.1371 22461.0
 03 11 2015  18 43  -14.4312 17902.8 -13560.3 -37.1417 22458.6
 03 11 2015  18 44  -14.4342 17901.9 -13560.6 -37.1436 22458.2
 03 11 2015  18 45  -14.4357 17900.5 -13560.7 -37.1461 22457.1
 03 11 2015  18 46  -14.4300 17902.0 -13561.6 -37.1454 22458.8
 03 11 2015  18 47  -14.4328 17900.1 -13561.5 -37.1483 22457.2
 03 11 2015  18 48  -14.4411 17896.5 -13561.3 -37.1534 22454.3
 03 11 2015  18 49  -14.4420 17896.0 -13561.5 -37.1546 22453.9
 03 11 2015  18 50  -14.4421 17894.6 -13561.7 -37.1572 22453.0
 03 11 2015  18 51  -14.4413 17893.8 -13561.8 -37.1586 22452.3
 03 11 2015  18 52  -14.4396 17893.4 -13562.3 -37.1602 22452.4
 03 11 2015  18 53  -14.4358 17893.7 -13562.7 -37.1606 22452.9
 03 11 2015  18 54  -14.4339 17893.5 -13563.0 -37.1615 22452.9
 03 11 2015  18 55  -14.4356 17892.2 -13563.1 -37.1637 22451.9
 03 11 2015  18 56  -14.4379 17890.7 -13563.1 -37.1661 22450.8
 03 11 2015  18 57  -14.4389 17889.4 -13563.2 -37.1681 22449.7
 03 11 2015  18 58  -14.4418 17887.6 -13563.0 -37.1705 22448.2
 03 11 2015  18 59  -14.4453 17886.2 -13563.0 -37.1728 22447.0
 03 11 2015  19 00  -14.4463 17885.0 -13563.0 -37.1746 22446.2
 03 11 2015  19 01  -14.4482 17884.2 -13563.2 -37.1762 22445.6
 03 11 2015  19 02  -14.4498 17883.9 -13563.3 -37.1769 22445.5
 03 11 2015  19 03  -14.4477 17884.3 -13563.8 -37.1773 22446.0
 03 11 2015  19 04  -14.4449 17884.0 -13563.8 -37.1778 22445.8
 03 11 2015  19 05  -14.4451 17883.3 -13563.5 -37.1782 22445.1
 03 11 2015  19 06  -14.4460 17882.7 -13563.7 -37.1797 22444.7
 03 11 2015  19 07  -14.4481 17881.5 -13563.3 -37.1806 22443.5
 03 11 2015  19 08  -14.4495 17880.7 -13563.3 -37.1819 22442.9
 03 11 2015  19 09  -14.4500 17880.4 -13563.2 -37.1820 22442.6
 03 11 2015  19 10  -14.4508 17880.1 -13563.3 -37.1827 22442.4
 03 11 2015  19 11  -14.4520 17880.0 -13563.3 -37.1829 22442.4
 03 11 2015  19 12  -14.4543 17879.7 -13563.6 -37.1841 22442.3
 03 11 2015  19 13  -14.4555 17879.7 -13563.5 -37.1837 22442.2
 03 11 2015  19 14  -14.4576 17879.7 -13563.0 -37.1827 22441.9
 03 11 2015  19 15  -14.4605 17879.9 -13563.0 -37.1824 22442.0
 03 11 2015  19 16  -14.4641 17879.5 -13562.8 -37.1827 22441.6
 03 11 2015  19 17  -14.4680 17878.3 -13562.3 -37.1835 22440.3
 03 11 2015  19 18  -14.4717 17877.5 -13561.9 -37.1839 22439.4
 03 11 2015  19 19  -14.4731 17877.0 -13561.6 -37.1841 22438.9
 03 11 2015  19 20  -14.4759 17877.2 -13561.5 -37.1837 22439.0
 03 11 2015  19 21  -14.4770 17876.8 -13561.6 -37.1844 22438.8
 03 11 2015  19 22  -14.4776 17877.0 -13561.4 -37.1838 22438.8
 03 11 2015  19 23  -14.4771 17877.7 -13561.3 -37.1824 22439.3
 03 11 2015  19 24  -14.4769 17878.4 -13561.1 -37.1810 22439.8
 03 11 2015  19 25  -14.4757 17879.4 -13561.3 -37.1797 22440.6
 03 11 2015  19 26  -14.4740 17880.3 -13561.3 -37.1783 22441.3
 03 11 2015  19 27  -14.4726 17880.9 -13561.5 -37.1778 22441.9
 03 11 2015  19 28  -14.4744 17880.9 -13561.3 -37.1776 22441.8
 03 11 2015  19 29  -14.4762 17880.8 -13561.2 -37.1774 22441.7
 03 11 2015  19 30  -14.4753 17881.6 -13561.0 -37.1757 22442.2
 03 11 2015  19 31  -14.4738 17882.6 -13560.8 -37.1738 22442.9
 03 11 2015  19 32  -14.4711 17883.5 -13561.4 -37.1737 22443.9
 03 11 2015  19 33  -14.4699 17884.2 -13561.6 -37.1729 22444.6
 03 11 2015  19 34  -14.4697 17884.5 -13561.3 -37.1719 22444.6
 03 11 2015  19 35  -14.4693 17885.0 -13561.5 -37.1716 22445.2
 03 11 2015  19 36  -14.4692 17885.2 -13561.5 -37.1712 22445.4
 03 11 2015  19 37  -14.4694 17885.6 -13561.6 -37.1709 22445.7
 03 11 2015  19 38  -14.4687 17885.7 -13561.6 -37.1707 22445.8
 03 11 2015  19 39  -14.4690 17886.1 -13561.7 -37.1704 22446.2
 03 11 2015  19 40  -14.4680 17886.4 -13561.9 -37.1702 22446.6
 03 11 2015  19 41  -14.4678 17886.2 -13561.9 -37.1706 22446.4
 03 11 2015  19 42  -14.4691 17886.0 -13561.6 -37.1702 22446.0
 03 11 2015  19 43  -14.4680 17885.8 -13562.2 -37.1717 22446.3
 03 11 2015  19 44  -14.4682 17885.5 -13562.3 -37.1723 22446.1
 03 11 2015  19 45  -14.4686 17885.0 -13562.1 -37.1728 22445.6
 03 11 2015  19 46  -14.4699 17884.8 -13561.7 -37.1723 22445.2
 03 11 2015  19 47  -14.4686 17885.2 -13562.5 -37.1732 22446.0
 03 11 2015  19 48  -14.4673 17885.1 -13562.3 -37.1730 22445.8
 03 11 2015  19 49  -14.4689 17884.0 -13561.7 -37.1734 22444.6
 03 11 2015  19 50  -14.4690 17883.5 -13561.5 -37.1740 22444.0
 03 11 2015  19 51  -14.4698 17882.9 -13562.5 -37.1767 22444.2
 03 11 2015  19 52  -14.4700 17882.5 -13562.3 -37.1770 22443.7
 03 11 2015  19 53  -14.4696 17882.1 -13562.5 -37.1781 22443.5
 03 11 2015  19 54  -14.4693 17881.3 -13562.4 -37.1790 22442.8
 03 11 2015  19 55  -14.4691 17880.7 -13562.4 -37.1800 22442.4
 03 11 2015  19 56  -14.4699 17879.7 -13562.3 -37.1814 22441.5
 03 11 2015  19 57  -14.4669 17880.2 -13562.8 -37.1815 22442.2
 03 11 2015  19 58  -14.4629 17881.2 -13563.2 -37.1809 22443.2
 03 11 2015  19 59  -14.4603 17881.0 -13563.4 -37.1814 22443.2
 03 11 2015  20 00  -14.4588 17881.0 -13563.4 -37.1816 22443.2
 03 11 2015  20 01  -14.4584 17880.8 -13563.5 -37.1821 22443.0
 03 11 2015  20 02  -14.4593 17880.2 -13563.4 -37.1829 22442.6
 03 11 2015  20 03  -14.4597 17879.3 -13563.4 -37.1841 22441.8
 03 11 2015  20 04  -14.4616 17878.0 -13563.2 -37.1858 22440.7
 03 11 2015  20 05  -14.4640 17877.2 -13563.4 -37.1874 22440.2
 03 11 2015  20 06  -14.4678 17875.6 -13563.0 -37.1890 22438.7
 03 11 2015  20 07  -14.4675 17875.6 -13563.5 -37.1902 22438.9
 03 11 2015  20 08  -14.4636 17876.2 -13563.9 -37.1901 22439.6
 03 11 2015  20 09  -14.4610 17876.5 -13564.5 -37.1909 22440.2
 03 11 2015  20 10  -14.4587 17876.6 -13564.4 -37.1904 22440.3
 03 11 2015  20 11  -14.4566 17875.5 -13564.3 -37.1918 22439.3
 03 11 2015  20 12  -14.4600 17873.0 -13564.2 -37.1956 22437.3
 03 11 2015  20 13  -14.4620 17871.2 -13563.8 -37.1976 22435.6
 03 11 2015  20 14  -14.4627 17869.4 -13564.0 -37.2007 22434.3
 03 11 2015  20 15  -14.4653 17868.0 -13564.1 -37.2031 22433.3
 03 11 2015  20 16  -14.4653 17867.2 -13564.8 -37.2057 22433.0
 03 11 2015  20 17  -14.4665 17866.0 -13564.0 -37.2058 22431.6
 03 11 2015  20 18  -14.4683 17864.3 -13564.8 -37.2102 22430.7
 03 11 2015  20 19  -14.4699 17863.5 -13564.8 -37.2116 22430.1
 03 11 2015  20 20  -14.4679 17863.6 -13565.2 -37.2121 22430.3
 03 11 2015  20 21  -14.4678 17863.5 -13565.4 -37.2127 22430.5
 03 11 2015  20 22  -14.4691 17862.6 -13565.6 -37.2143 22429.8
 03 11 2015  20 23  -14.4723 17862.3 -13565.9 -37.2154 22429.8
 03 11 2015  20 24  -14.4756 17862.8 -13565.5 -37.2139 22429.9
 03 11 2015  20 25  -14.4774 17863.4 -13565.5 -37.2130 22430.5
 03 11 2015  20 26  -14.4801 17864.5 -13566.4 -37.2131 22431.8
 03 11 2015  20 27  -14.4817 17867.0 -13566.0 -37.2085 22433.6
 03 11 2015  20 28  -14.4833 17869.3 -13567.1 -37.2073 22436.1
 03 11 2015  20 29  -14.4891 17868.1 -13566.3 -37.2072 22434.7
 03 11 2015  20 30  -14.4935 17870.5 -13565.7 -37.2024 22436.2
 03 11 2015  20 31  -14.4929 17872.5 -13566.1 -37.2001 22438.0
 03 11 2015  20 32  -14.4956 17873.3 -13566.3 -37.1992 22438.8
 03 11 2015  20 33  -14.4985 17875.6 -13565.1 -37.1935 22439.9
 03 11 2015  20 34  -14.4991 17878.5 -13565.7 -37.1902 22442.5
 03 11 2015  20 35  -14.5002 17880.0 -13565.7 -37.1878 22443.7
 03 11 2015  20 36  -14.4990 17881.8 -13565.3 -37.1841 22444.9
 03 11 2015  20 37  -14.4979 17883.8 -13565.1 -37.1808 22446.4
 03 11 2015  20 38  -14.4986 17883.5 -13564.4 -37.1799 22445.7
 03 11 2015  20 39  -14.5019 17884.0 -13564.0 -37.1782 22446.0
 03 11 2015  20 40  -14.5054 17884.5 -13563.6 -37.1766 22446.1
 03 11 2015  20 41  -14.5082 17885.5 -13563.5 -37.1747 22446.8
 03 11 2015  20 42  -14.5084 17886.3 -13563.4 -37.1734 22447.4
 03 11 2015  20 43  -14.5076 17887.9 -13563.3 -37.1708 22448.6
 03 11 2015  20 44  -14.5070 17888.4 -13563.1 -37.1696 22448.9
 03 11 2015  20 45  -14.5089 17888.0 -13562.6 -37.1692 22448.3
 03 11 2015  20 46  -14.5090 17888.1 -13562.5 -37.1689 22448.2
 03 11 2015  20 47  -14.5103 17888.2 -13561.8 -37.1671 22448.0
 03 11 2015  20 48  -14.5116 17888.1 -13562.1 -37.1680 22448.1
 03 11 2015  20 49  -14.5126 17888.7 -13562.1 -37.1672 22448.5
 03 11 2015  20 50  -14.5120 17889.8 -13562.2 -37.1654 22449.5
 03 11 2015  20 51  -14.5099 17890.6 -13562.2 -37.1643 22450.1
 03 11 2015  20 52  -14.5099 17890.0 -13561.8 -37.1644 22449.3
 03 11 2015  20 53  -14.5076 17892.3 -13562.2 -37.1616 22451.4
 03 11 2015  20 54  -14.5051 17893.2 -13562.1 -37.1600 22452.1
 03 11 2015  20 55  -14.5013 17896.1 -13562.4 -37.1563 22454.6
 03 11 2015  20 56  -14.4974 17898.1 -13562.7 -37.1538 22456.4
 03 11 2015  20 57  -14.4969 17896.6 -13562.0 -37.1547 22454.8
 03 11 2015  20 58  -14.4956 17894.8 -13561.3 -37.1559 22452.9
 03 11 2015  20 59  -14.4959 17894.2 -13561.3 -37.1569 22452.4
 03 11 2015  21 00  -14.4956 17894.1 -13561.4 -37.1573 22452.4
 03 11 2015  21 01  -14.4948 17895.0 -13561.7 -37.1566 22453.3
 03 11 2015  21 02  -14.4946 17894.6 -13561.6 -37.1569 22452.9
 03 11 2015  21 03  -14.4948 17894.0 -13561.6 -37.1579 22452.4
 03 11 2015  21 04  -14.4948 17893.5 -13561.6 -37.1586 22452.1
 03 11 2015  21 05  -14.4964 17892.4 -13561.5 -37.1601 22451.1
 03 11 2015  21 06  -14.4974 17891.7 -13561.6 -37.1614 22450.6
 03 11 2015  21 07  -14.4985 17891.0 -13562.0 -37.1632 22450.3
 03 11 2015  21 08  -14.5001 17890.9 -13561.8 -37.1631 22450.1
 03 11 2015  21 09  -14.5010 17891.1 -13562.0 -37.1633 22450.4
 03 11 2015  21 10  -14.5010 17891.5 -13562.4 -37.1634 22450.9
 03 11 2015  21 11  -14.5017 17891.2 -13563.0 -37.1650 22451.1
 03 11 2015  21 12  -14.5028 17891.0 -13562.4 -37.1642 22450.5
 03 11 2015  21 13  -14.5033 17890.7 -13562.7 -37.1652 22450.5
 03 11 2015  21 14  -14.5021 17891.7 -13563.1 -37.1645 22451.6
 03 11 2015  21 15  -14.5016 17891.5 -13563.2 -37.1649 22451.4
 03 11 2015  21 16  -14.5026 17891.3 -13563.3 -37.1655 22451.3
 03 11 2015  21 17  -14.5028 17891.3 -13563.2 -37.1653 22451.3
 03 11 2015  21 18  -14.5024 17891.7 -13563.4 -37.1651 22451.7
 03 11 2015  21 19  -14.5019 17892.0 -13563.6 -37.1650 22452.0
 03 11 2015  21 20  -14.5021 17891.6 -13563.4 -37.1653 22451.6
 03 11 2015  21 21  -14.5022 17891.3 -13563.6 -37.1661 22451.5
 03 11 2015  21 22  -14.5026 17891.2 -13563.7 -37.1665 22451.5
 03 11 2015  21 23  -14.5028 17891.2 -13563.9 -37.1670 22451.6
 03 11 2015  21 24  -14.5025 17891.1 -13563.8 -37.1668 22451.5
 03 11 2015  21 25  -14.5030 17891.0 -13564.0 -37.1673 22451.5
 03 11 2015  21 26  -14.5034 17890.8 -13564.0 -37.1677 22451.4
 03 11 2015  21 27  -14.5031 17891.0 -13564.3 -37.1680 22451.7
 03 11 2015  21 28  -14.5026 17891.7 -13564.5 -37.1672 22452.4
 03 11 2015  21 29  -14.5025 17891.8 -13564.5 -37.1671 22452.4
 03 11 2015  21 30  -14.5023 17891.9 -13565.0 -37.1680 22452.9
 03 11 2015  21 31  -14.5029 17891.7 -13564.4 -37.1670 22452.3
 03 11 2015  21 32  -14.5035 17891.8 -13564.6 -37.1675 22452.5
 03 11 2015  21 33  -14.5038 17891.9 -13565.0 -37.1680 22452.8
 03 11 2015  21 34  -14.5041 17892.0 -13564.4 -37.1667 22452.6
 03 11 2015  21 35  -14.5044 17892.0 -13564.3 -37.1664 22452.4
 03 11 2015  21 36  -14.5041 17892.5 -13564.7 -37.1664 22453.2
 03 11 2015  21 37  -14.5039 17892.9 -13565.0 -37.1665 22453.7
 03 11 2015  21 38  -14.5037 17893.2 -13565.1 -37.1662 22453.9
 03 11 2015  21 39  -14.5033 17893.8 -13564.8 -37.1647 22454.3
 03 11 2015  21 40  -14.5030 17894.4 -13565.2 -37.1645 22455.0
 03 11 2015  21 41  -14.5029 17895.1 -13564.9 -37.1630 22455.3
 03 11 2015  21 42  -14.5025 17895.8 -13565.2 -37.1623 22456.0
 03 11 2015  21 43  -14.5021 17896.7 -13565.0 -37.1608 22456.7
 03 11 2015  21 44  -14.5021 17897.4 -13565.4 -37.1605 22457.5
 03 11 2015  21 45  -14.5021 17898.3 -13564.8 -37.1578 22457.8
 03 11 2015  21 46  -14.5018 17899.5 -13564.8 -37.1558 22458.7
 03 11 2015  21 47  -14.5021 17900.2 -13565.0 -37.1552 22459.5
 03 11 2015  21 48  -14.5021 17900.8 -13564.9 -37.1539 22459.9
 03 11 2015  21 49  -14.5021 17900.9 -13565.4 -37.1549 22460.2
 03 11 2015  21 50  -14.5023 17900.8 -13565.3 -37.1549 22460.0
 03 11 2015  21 51  -14.5024 17900.9 -13564.4 -37.1529 22459.6
 03 11 2015  21 52  -14.5018 17901.6 -13564.3 -37.1516 22460.1
 03 11 2015  21 53  -14.5018 17901.9 -13564.4 -37.1514 22460.4
 03 11 2015  21 54  -14.5019 17902.3 -13564.7 -37.1512 22460.9
 03 11 2015  21 55  -14.5024 17902.3 -13565.3 -37.1526 22461.3
 03 11 2015  21 56  -14.5028 17902.5 -13564.4 -37.1505 22461.0
 03 11 2015  21 57  -14.5030 17902.6 -13565.0 -37.1514 22461.3
 03 11 2015  21 58  -14.5031 17902.8 -13564.3 -37.1499 22461.1
 03 11 2015  21 59  -14.5028 17903.2 -13564.9 -37.1504 22461.8
 03 11 2015  22 00  -14.5026 17903.5 -13564.8 -37.1498 22462.0
 03 11 2015  22 01  -14.5029 17903.6 -13564.4 -37.1488 22461.8
 03 11 2015  22 02  -14.5031 17903.3 -13564.6 -37.1496 22461.7
 03 11 2015  22 03  -14.5033 17903.2 -13564.1 -37.1487 22461.3
 03 11 2015  22 04  -14.5033 17903.2 -13564.7 -37.1500 22461.6
 03 11 2015  22 05  -14.5032 17903.3 -13564.5 -37.1494 22461.6
 03 11 2015  22 06  -14.5028 17903.8 -13564.5 -37.1486 22462.0
 03 11 2015  22 07  -14.5032 17903.4 -13564.6 -37.1494 22461.8
 03 11 2015  22 08  -14.5030 17903.7 -13564.5 -37.1488 22461.9
 03 11 2015  22 09  -14.5030 17903.7 -13564.4 -37.1486 22461.9
 03 11 2015  22 10  -14.5032 17903.7 -13564.3 -37.1485 22461.8
 03 11 2015  22 11  -14.5034 17903.7 -13564.8 -37.1494 22462.1
 03 11 2015  22 12  -14.5032 17904.2 -13564.3 -37.1475 22462.2
 03 11 2015  22 13  -14.5033 17904.5 -13564.5 -37.1477 22462.6
 03 11 2015  22 14  -14.5028 17904.9 -13564.6 -37.1472 22462.9
 03 11 2015  22 15  -14.5028 17904.8 -13564.1 -37.1464 22462.5
 03 11 2015  22 16  -14.5025 17904.9 -13564.1 -37.1461 22462.6
 03 11 2015  22 17  -14.5020 17905.3 -13563.9 -37.1451 22462.8
 03 11 2015  22 18  -14.5017 17905.6 -13564.4 -37.1456 22463.4
 03 11 2015  22 19  -14.5021 17905.9 -13564.0 -37.1446 22463.4
 03 11 2015  22 20  -14.5027 17905.9 -13563.8 -37.1440 22463.2
 03 11 2015  22 21  -14.5033 17905.9 -13564.0 -37.1443 22463.4
 03 11 2015  22 22  -14.5038 17906.1 -13563.7 -37.1436 22463.4
 03 11 2015  22 23  -14.5038 17906.5 -13564.5 -37.1445 22464.1
 03 11 2015  22 24  -14.5038 17906.9 -13564.4 -37.1436 22464.4
 03 11 2015  22 25  -14.5039 17907.1 -13564.3 -37.1431 22464.5
 03 11 2015  22 26  -14.5040 17907.1 -13564.1 -37.1428 22464.4
 03 11 2015  22 27  -14.5040 17907.0 -13564.1 -37.1429 22464.3
 03 11 2015  22 28  -14.5043 17906.8 -13563.9 -37.1428 22464.1
 03 11 2015  22 29  -14.5043 17906.8 -13564.1 -37.1431 22464.2
 03 11 2015  22 30  -14.5042 17906.6 -13563.9 -37.1431 22463.9
 03 11 2015  22 31  -14.5044 17906.4 -13564.2 -37.1441 22463.8
 03 11 2015  22 32  -14.5048 17906.1 -13564.2 -37.1445 22463.7
 03 11 2015  22 33  -14.5049 17906.1 -13564.4 -37.1449 22463.8
 03 11 2015  22 34  -14.5050 17906.4 -13564.1 -37.1439 22463.8
 03 11 2015  22 35  -14.5053 17906.6 -13564.4 -37.1443 22464.2
 03 11 2015  22 36  -14.5055 17906.9 -13564.2 -37.1433 22464.2
 03 11 2015  22 37  -14.5063 17906.7 -13564.0 -37.1432 22464.1
 03 11 2015  22 38  -14.5071 17906.3 -13564.0 -37.1438 22463.7
 03 11 2015  22 39  -14.5079 17905.9 -13563.9 -37.1442 22463.4
 03 11 2015  22 40  -14.5086 17905.7 -13563.5 -37.1438 22462.9
 03 11 2015  22 41  -14.5089 17905.6 -13563.8 -37.1445 22463.0
 03 11 2015  22 42  -14.5091 17905.7 -13564.3 -37.1452 22463.4
 03 11 2015  22 43  -14.5092 17905.9 -13564.3 -37.1450 22463.6
 03 11 2015  22 44  -14.5093 17906.3 -13564.2 -37.1443 22463.9
 03 11 2015  22 45  -14.5101 17906.2 -13564.4 -37.1448 22463.8
 03 11 2015  22 46  -14.5102 17906.4 -13564.3 -37.1441 22463.9
 03 11 2015  22 47  -14.5103 17906.6 -13564.5 -37.1444 22464.3
 03 11 2015  22 48  -14.5112 17906.3 -13564.2 -37.1442 22463.8
 03 11 2015  22 49  -14.5115 17906.3 -13564.1 -37.1441 22463.7
 03 11 2015  22 50  -14.5116 17906.2 -13564.3 -37.1445 22463.8
 03 11 2015  22 51  -14.5120 17906.2 -13564.2 -37.1444 22463.8
 03 11 2015  22 52  -14.5125 17905.9 -13564.4 -37.1452 22463.6
 03 11 2015  22 53  -14.5129 17905.6 -13564.7 -37.1462 22463.6
 03 11 2015  22 54  -14.5137 17905.3 -13564.5 -37.1463 22463.2
 03 11 2015  22 55  -14.5148 17904.6 -13564.1 -37.1467 22462.4
 03 11 2015  22 56  -14.5155 17904.2 -13563.9 -37.1469 22462.0
 03 11 2015  22 57  -14.5157 17904.0 -13564.4 -37.1481 22462.1
 03 11 2015  22 58  -14.5158 17904.1 -13564.5 -37.1482 22462.2
 03 11 2015  22 59  -14.5153 17904.5 -13564.9 -37.1484 22462.8
 03 11 2015  23 00  -14.5152 17905.1 -13565.0 -37.1476 22463.3
 03 11 2015  23 01  -14.5146 17905.6 -13565.0 -37.1469 22463.8
 03 11 2015  23 02  -14.5146 17906.5 -13565.1 -37.1458 22464.5
 03 11 2015  23 03  -14.5144 17906.8 -13565.1 -37.1452 22464.7
 03 11 2015  23 04  -14.5149 17907.0 -13565.1 -37.1451 22464.9
 03 11 2015  23 05  -14.5153 17907.1 -13565.0 -37.1444 22464.9
 03 11 2015  23 06  -14.5159 17907.1 -13564.5 -37.1435 22464.6
 03 11 2015  23 07  -14.5163 17907.1 -13564.9 -37.1444 22464.9
 03 11 2015  23 08  -14.5167 17906.9 -13564.6 -37.1442 22464.5
 03 11 2015  23 09  -14.5172 17906.4 -13564.3 -37.1443 22464.0
 03 11 2015  23 10  -14.5172 17906.2 -13564.9 -37.1457 22464.1
 03 11 2015  23 11  -14.5177 17905.8 -13564.4 -37.1454 22463.6
 03 11 2015  23 12  -14.5175 17905.8 -13564.8 -37.1463 22463.8
 03 11 2015  23 13  -14.5177 17905.6 -13564.4 -37.1458 22463.4
 03 11 2015  23 14  -14.5175 17905.7 -13564.2 -37.1450 22463.3
 03 11 2015  23 15  -14.5172 17905.9 -13564.3 -37.1451 22463.6
 03 11 2015  23 16  -14.5169 17906.2 -13564.8 -37.1456 22464.1
 03 11 2015  23 17  -14.5168 17906.5 -13565.0 -37.1457 22464.4
 03 11 2015  23 18  -14.5166 17906.8 -13565.1 -37.1452 22464.7
 03 11 2015  23 19  -14.5167 17906.8 -13564.9 -37.1449 22464.7
 03 11 2015  23 20  -14.5164 17907.0 -13564.8 -37.1442 22464.7
 03 11 2015  23 21  -14.5164 17907.2 -13564.4 -37.1432 22464.6
 03 11 2015  23 22  -14.5160 17907.7 -13564.6 -37.1429 22465.1
 03 11 2015  23 23  -14.5159 17907.9 -13564.5 -37.1423 22465.3
 03 11 2015  23 24  -14.5161 17907.7 -13565.1 -37.1440 22465.5
 03 11 2015  23 25  -14.5166 17907.2 -13564.1 -37.1426 22464.5
 03 11 2015  23 26  -14.5165 17906.8 -13564.2 -37.1433 22464.2
 03 11 2015  23 27  -14.5163 17906.5 -13564.5 -37.1444 22464.1
 03 11 2015  23 28  -14.5168 17906.0 -13564.3 -37.1449 22463.6
 03 11 2015  23 29  -14.5172 17905.5 -13564.0 -37.1449 22463.1
 03 11 2015  23 30  -14.5172 17905.5 -13564.1 -37.1453 22463.2
 03 11 2015  23 31  -14.5167 17905.9 -13564.3 -37.1450 22463.5
 03 11 2015  23 32  -14.5163 17905.9 -13564.2 -37.1449 22463.5
 03 11 2015  23 33  -14.5156 17906.3 -13564.3 -37.1445 22463.9
 03 11 2015  23 34  -14.5151 17906.6 -13564.4 -37.1442 22464.2
 03 11 2015  23 35  -14.5145 17906.5 -13564.4 -37.1443 22464.1
 03 11 2015  23 36  -14.5146 17906.5 -13564.3 -37.1441 22464.1
 03 11 2015  23 37  -14.5145 17906.9 -13564.7 -37.1443 22464.6
 03 11 2015  23 38  -14.5141 17907.4 -13564.1 -37.1422 22464.6
 03 11 2015  23 39  -14.5136 17907.8 -13564.5 -37.1426 22465.2
 03 11 2015  23 40  -14.5137 17908.1 -13563.7 -37.1405 22464.9
 03 11 2015  23 41  -14.5139 17908.0 -13563.9 -37.1410 22465.0
 03 11 2015  23 42  -14.5137 17907.6 -13564.0 -37.1417 22464.8
 03 11 2015  23 43  -14.5138 17907.5 -13564.1 -37.1422 22464.7
 03 11 2015  23 44  -14.5142 17907.3 -13564.2 -37.1427 22464.6
 03 11 2015  23 45  -14.5150 17906.5 -13563.3 -37.1420 22463.4
 03 11 2015  23 46  -14.5154 17905.9 -13563.8 -37.1441 22463.3
 03 11 2015  23 47  -14.5170 17905.4 -13563.3 -37.1437 22462.6
 03 11 2015  23 48  -14.5174 17905.1 -13563.5 -37.1447 22462.5
 03 11 2015  23 49  -14.5168 17905.0 -13563.7 -37.1450 22462.5
 03 11 2015  23 50  -14.5162 17904.8 -13563.6 -37.1453 22462.3
 03 11 2015  23 51  -14.5158 17905.3 -13563.7 -37.1448 22462.7
 03 11 2015  23 52  -14.5165 17906.0 -13563.9 -37.1440 22463.4
 03 11 2015  23 53  -14.5175 17906.3 -13563.8 -37.1432 22463.6
 03 11 2015  23 54  -14.5187 17905.5 -13563.6 -37.1443 22462.8
 03 11 2015  23 55  -14.5193 17904.6 -13563.3 -37.1451 22461.9
 03 11 2015  23 56  -14.5184 17904.7 -13563.4 -37.1452 22462.1
 03 11 2015  23 57  -14.5174 17905.4 -13563.7 -37.1444 22462.8
