SAO MARTINHO DA SERRA EMBRACE-06 <310> 1 Min. Reported data

 DD MM YYYY  HH MM   D(Deg)  H(nT)   Z(nT)   I(Deg)   F(nT)

 06 11 2015  00 00  -14.5356 17911.5 -13564.5 -37.1368 22468.2
 06 11 2015  00 01  -14.5354 17911.7 -13564.5 -37.1366 22468.3
 06 11 2015  00 02  -14.5361 17912.3 -13564.7 -37.1359 22468.9
 06 11 2015  00 03  -14.5367 17912.8 -13565.1 -37.1361 22469.5
 06 11 2015  00 04  -14.5371 17913.2 -13565.5 -37.1362 22470.1
 06 11 2015  00 05  -14.5381 17913.8 -13564.7 -37.1337 22470.1
 06 11 2015  00 06  -14.5388 17914.6 -13565.4 -37.1338 22471.2
 06 11 2015  00 07  -14.5396 17915.5 -13565.4 -37.1325 22471.8
 06 11 2015  00 08  -14.5403 17916.1 -13565.2 -37.1312 22472.3
 06 11 2015  00 09  -14.5410 17916.9 -13565.1 -37.1297 22472.8
 06 11 2015  00 10  -14.5412 17917.9 -13565.3 -37.1287 22473.8
 06 11 2015  00 11  -14.5416 17918.9 -13564.8 -37.1260 22474.2
 06 11 2015  00 12  -14.5417 17919.7 -13564.7 -37.1247 22474.8
 06 11 2015  00 13  -14.5420 17920.7 -13564.8 -37.1233 22475.6
 06 11 2015  00 14  -14.5423 17921.2 -13564.6 -37.1221 22475.9
 06 11 2015  00 15  -14.5426 17921.6 -13564.3 -37.1210 22476.1
 06 11 2015  00 16  -14.5428 17921.9 -13564.2 -37.1201 22476.2
 06 11 2015  00 17  -14.5427 17922.4 -13564.1 -37.1193 22476.6
 06 11 2015  00 18  -14.5427 17922.7 -13564.0 -37.1184 22476.8
 06 11 2015  00 19  -14.5423 17923.0 -13563.9 -37.1179 22477.0
 06 11 2015  00 20  -14.5421 17923.0 -13564.1 -37.1184 22477.0
 06 11 2015  00 21  -14.5415 17923.1 -13563.9 -37.1178 22477.1
 06 11 2015  00 22  -14.5409 17923.0 -13563.8 -37.1177 22476.9
 06 11 2015  00 23  -14.5400 17922.8 -13563.7 -37.1178 22476.7
 06 11 2015  00 24  -14.5392 17922.7 -13563.6 -37.1177 22476.5
 06 11 2015  00 25  -14.5387 17922.3 -13563.7 -37.1184 22476.3
 06 11 2015  00 26  -14.5384 17922.1 -13563.2 -37.1179 22475.8
 06 11 2015  00 27  -14.5379 17921.7 -13563.5 -37.1191 22475.7
 06 11 2015  00 28  -14.5377 17921.0 -13563.3 -37.1198 22475.0
 06 11 2015  00 29  -14.5371 17920.5 -13563.8 -37.1214 22474.9
 06 11 2015  00 30  -14.5363 17920.4 -13564.0 -37.1222 22475.0
 06 11 2015  00 31  -14.5365 17919.9 -13564.1 -37.1230 22474.6
 06 11 2015  00 32  -14.5364 17919.7 -13563.7 -37.1226 22474.2
 06 11 2015  00 33  -14.5368 17919.2 -13563.9 -37.1237 22473.9
 06 11 2015  00 34  -14.5372 17918.7 -13564.0 -37.1247 22473.6
 06 11 2015  00 35  -14.5376 17918.3 -13563.8 -37.1248 22473.1
 06 11 2015  00 36  -14.5377 17918.0 -13564.1 -37.1259 22473.1
 06 11 2015  00 37  -14.5377 17917.8 -13564.1 -37.1263 22472.9
 06 11 2015  00 38  -14.5378 17917.5 -13564.3 -37.1272 22472.8
 06 11 2015  00 39  -14.5379 17917.3 -13564.7 -37.1283 22472.9
 06 11 2015  00 40  -14.5381 17917.2 -13564.3 -37.1276 22472.6
 06 11 2015  00 41  -14.5382 17917.2 -13564.6 -37.1283 22472.7
 06 11 2015  00 42  -14.5382 17917.1 -13564.3 -37.1279 22472.5
 06 11 2015  00 43  -14.5382 17917.0 -13564.4 -37.1281 22472.5
 06 11 2015  00 44  -14.5383 17917.1 -13564.8 -37.1288 22472.8
 06 11 2015  00 45  -14.5385 17917.2 -13564.6 -37.1282 22472.8
 06 11 2015  00 46  -14.5387 17917.4 -13564.8 -37.1283 22473.0
 06 11 2015  00 47  -14.5387 17917.5 -13564.8 -37.1282 22473.1
 06 11 2015  00 48  -14.5386 17917.6 -13564.8 -37.1281 22473.2
 06 11 2015  00 49  -14.5385 17917.7 -13564.9 -37.1281 22473.3
 06 11 2015  00 50  -14.5384 17917.6 -13564.8 -37.1280 22473.2
 06 11 2015  00 51  -14.5379 17917.7 -13564.8 -37.1278 22473.3
 06 11 2015  00 52  -14.5374 17917.7 -13564.9 -37.1280 22473.3
 06 11 2015  00 53  -14.5367 17917.5 -13564.9 -37.1284 22473.1
 06 11 2015  00 54  -14.5362 17917.4 -13564.9 -37.1286 22473.1
 06 11 2015  00 55  -14.5359 17917.2 -13564.8 -37.1286 22472.9
 06 11 2015  00 56  -14.5356 17917.0 -13564.8 -37.1291 22472.7
 06 11 2015  00 57  -14.5352 17916.7 -13564.8 -37.1293 22472.5
 06 11 2015  00 58  -14.5346 17916.8 -13564.8 -37.1294 22472.6
 06 11 2015  00 59  -14.5341 17916.9 -13565.1 -37.1298 22472.8
 06 11 2015  01 00  -14.5334 17916.7 -13564.9 -37.1296 22472.6
 06 11 2015  01 01  -14.5328 17916.5 -13565.0 -37.1300 22472.5
 06 11 2015  01 02  -14.5322 17916.5 -13565.1 -37.1303 22472.5
 06 11 2015  01 03  -14.5320 17916.4 -13565.0 -37.1302 22472.3
 06 11 2015  01 04  -14.5316 17916.5 -13565.1 -37.1303 22472.5
 06 11 2015  01 05  -14.5315 17916.6 -13565.1 -37.1301 22472.5
 06 11 2015  01 06  -14.5310 17916.8 -13565.2 -37.1302 22472.8
 06 11 2015  01 07  -14.5306 17916.9 -13565.2 -37.1300 22472.9
 06 11 2015  01 08  -14.5302 17917.0 -13565.1 -37.1295 22472.9
 06 11 2015  01 09  -14.5296 17917.1 -13565.2 -37.1295 22473.1
 06 11 2015  01 10  -14.5290 17917.3 -13565.4 -37.1298 22473.4
 06 11 2015  01 11  -14.5285 17917.5 -13565.2 -37.1291 22473.3
 06 11 2015  01 12  -14.5279 17917.9 -13565.2 -37.1284 22473.7
 06 11 2015  01 13  -14.5272 17918.1 -13565.2 -37.1280 22473.9
 06 11 2015  01 14  -14.5266 17918.1 -13565.2 -37.1280 22473.8
 06 11 2015  01 15  -14.5260 17918.2 -13565.2 -37.1279 22473.9
 06 11 2015  01 16  -14.5256 17918.4 -13565.2 -37.1276 22474.1
 06 11 2015  01 17  -14.5250 17918.6 -13565.6 -37.1281 22474.5
 06 11 2015  01 18  -14.5247 17918.8 -13565.3 -37.1272 22474.4
 06 11 2015  01 19  -14.5243 17919.0 -13565.0 -37.1262 22474.5
 06 11 2015  01 20  -14.5232 17919.5 -13565.2 -37.1260 22475.0
 06 11 2015  01 21  -14.5223 17919.8 -13565.4 -37.1258 22475.3
 06 11 2015  01 22  -14.5212 17920.1 -13565.3 -37.1253 22475.5
 06 11 2015  01 23  -14.5201 17920.2 -13565.2 -37.1248 22475.5
 06 11 2015  01 24  -14.5189 17920.5 -13565.1 -37.1242 22475.7
 06 11 2015  01 25  -14.5179 17921.0 -13565.3 -37.1237 22476.2
 06 11 2015  01 26  -14.5170 17921.1 -13565.6 -37.1242 22476.5
 06 11 2015  01 27  -14.5160 17921.6 -13565.3 -37.1229 22476.7
 06 11 2015  01 28  -14.5150 17922.2 -13565.1 -37.1215 22477.0
 06 11 2015  01 29  -14.5143 17922.6 -13565.6 -37.1219 22477.6
 06 11 2015  01 30  -14.5133 17923.2 -13565.3 -37.1203 22478.0
 06 11 2015  01 31  -14.5123 17924.0 -13565.7 -37.1200 22478.9
 06 11 2015  01 32  -14.5118 17924.4 -13565.6 -37.1191 22479.0
 06 11 2015  01 33  -14.5112 17924.7 -13565.5 -37.1185 22479.3
 06 11 2015  01 34  -14.5109 17924.9 -13565.8 -37.1190 22479.6
 06 11 2015  01 35  -14.5104 17925.2 -13565.4 -37.1176 22479.6
 06 11 2015  01 36  -14.5098 17925.3 -13565.4 -37.1174 22479.7
 06 11 2015  01 37  -14.5093 17925.3 -13565.6 -37.1178 22479.8
 06 11 2015  01 38  -14.5092 17925.4 -13565.3 -37.1170 22479.7
 06 11 2015  01 39  -14.5089 17925.5 -13565.5 -37.1173 22480.0
 06 11 2015  01 40  -14.5090 17925.6 -13565.3 -37.1166 22479.9
 06 11 2015  01 41  -14.5091 17925.5 -13565.1 -37.1165 22479.7
 06 11 2015  01 42  -14.5089 17925.5 -13565.5 -37.1172 22479.9
 06 11 2015  01 43  -14.5092 17925.5 -13564.9 -37.1161 22479.5
 06 11 2015  01 44  -14.5097 17925.3 -13564.7 -37.1160 22479.2
 06 11 2015  01 45  -14.5104 17924.8 -13564.5 -37.1162 22478.7
 06 11 2015  01 46  -14.5111 17924.4 -13564.6 -37.1171 22478.5
 06 11 2015  01 47  -14.5117 17924.0 -13564.8 -37.1182 22478.2
 06 11 2015  01 48  -14.5123 17923.8 -13565.1 -37.1191 22478.3
 06 11 2015  01 49  -14.5130 17923.7 -13565.2 -37.1195 22478.3
 06 11 2015  01 50  -14.5136 17923.5 -13564.6 -37.1187 22477.7
 06 11 2015  01 51  -14.5140 17923.3 -13565.2 -37.1201 22478.0
 06 11 2015  01 52  -14.5145 17923.2 -13565.2 -37.1203 22477.9
 06 11 2015  01 53  -14.5151 17923.1 -13564.8 -37.1197 22477.6
 06 11 2015  01 54  -14.5154 17923.3 -13564.8 -37.1193 22477.7
 06 11 2015  01 55  -14.5156 17923.3 -13565.6 -37.1208 22478.2
 06 11 2015  01 56  -14.5159 17923.4 -13565.3 -37.1201 22478.1
 06 11 2015  01 57  -14.5162 17923.1 -13565.2 -37.1202 22477.8
 06 11 2015  01 58  -14.5163 17923.1 -13565.2 -37.1204 22477.8
 06 11 2015  01 59  -14.5166 17923.0 -13564.9 -37.1200 22477.6
 06 11 2015  02 00  -14.5169 17922.9 -13565.7 -37.1217 22477.9
 06 11 2015  02 01  -14.5177 17922.8 -13565.1 -37.1206 22477.5
 06 11 2015  02 02  -14.5178 17922.8 -13565.0 -37.1204 22477.4
 06 11 2015  02 03  -14.5179 17922.6 -13565.2 -37.1210 22477.4
 06 11 2015  02 04  -14.5181 17922.5 -13565.2 -37.1213 22477.4
 06 11 2015  02 05  -14.5180 17922.7 -13565.3 -37.1212 22477.5
 06 11 2015  02 06  -14.5179 17922.8 -13565.4 -37.1212 22477.7
 06 11 2015  02 07  -14.5181 17922.7 -13565.1 -37.1206 22477.4
 06 11 2015  02 08  -14.5181 17922.7 -13565.5 -37.1214 22477.7
 06 11 2015  02 09  -14.5184 17922.9 -13565.3 -37.1208 22477.7
 06 11 2015  02 10  -14.5185 17922.9 -13565.2 -37.1208 22477.6
 06 11 2015  02 11  -14.5188 17922.9 -13565.3 -37.1209 22477.7
 06 11 2015  02 12  -14.5191 17922.5 -13565.2 -37.1211 22477.3
 06 11 2015  02 13  -14.5191 17922.4 -13565.2 -37.1216 22477.3
 06 11 2015  02 14  -14.5193 17922.3 -13565.2 -37.1215 22477.2
 06 11 2015  02 15  -14.5195 17922.2 -13565.3 -37.1219 22477.2
 06 11 2015  02 16  -14.5198 17922.2 -13565.2 -37.1217 22477.1
 06 11 2015  02 17  -14.5199 17922.4 -13565.5 -37.1221 22477.4
 06 11 2015  02 18  -14.5202 17922.5 -13565.5 -37.1219 22477.5
 06 11 2015  02 19  -14.5205 17922.5 -13565.5 -37.1219 22477.5
 06 11 2015  02 20  -14.5206 17922.5 -13565.5 -37.1219 22477.5
 06 11 2015  02 21  -14.5206 17922.6 -13565.6 -37.1220 22477.6
 06 11 2015  02 22  -14.5208 17922.3 -13565.4 -37.1220 22477.3
 06 11 2015  02 23  -14.5209 17922.2 -13565.5 -37.1223 22477.3
 06 11 2015  02 24  -14.5210 17922.2 -13565.6 -37.1227 22477.3
 06 11 2015  02 25  -14.5210 17922.1 -13565.4 -37.1223 22477.2
 06 11 2015  02 26  -14.5208 17922.0 -13565.1 -37.1218 22476.9
 06 11 2015  02 27  -14.5203 17922.0 -13565.6 -37.1229 22477.2
 06 11 2015  02 28  -14.5202 17922.1 -13565.2 -37.1219 22477.0
 06 11 2015  02 29  -14.5196 17922.0 -13565.7 -37.1231 22477.2
 06 11 2015  02 30  -14.5195 17922.0 -13565.6 -37.1228 22477.2
 06 11 2015  02 31  -14.5193 17922.0 -13566.0 -37.1236 22477.4
 06 11 2015  02 32  -14.5191 17922.0 -13566.0 -37.1236 22477.4
 06 11 2015  02 33  -14.5192 17922.0 -13565.8 -37.1233 22477.4
 06 11 2015  02 34  -14.5193 17922.1 -13566.1 -37.1236 22477.6
 06 11 2015  02 35  -14.5196 17922.2 -13566.0 -37.1234 22477.6
 06 11 2015  02 36  -14.5197 17922.3 -13566.0 -37.1233 22477.7
 06 11 2015  02 37  -14.5194 17922.3 -13566.2 -37.1236 22477.7
 06 11 2015  02 38  -14.5194 17922.2 -13565.8 -37.1231 22477.4
 06 11 2015  02 39  -14.5191 17922.0 -13565.8 -37.1232 22477.3
 06 11 2015  02 40  -14.5184 17921.8 -13565.7 -37.1235 22477.1
 06 11 2015  02 41  -14.5178 17921.6 -13565.5 -37.1233 22476.8
 06 11 2015  02 42  -14.5174 17921.5 -13566.1 -37.1246 22477.1
 06 11 2015  02 43  -14.5174 17921.3 -13566.4 -37.1255 22477.1
 06 11 2015  02 44  -14.5179 17921.2 -13565.9 -37.1246 22476.7
 06 11 2015  02 45  -14.5178 17921.1 -13566.9 -37.1269 22477.3
 06 11 2015  02 46  -14.5185 17920.8 -13566.3 -37.1261 22476.6
 06 11 2015  02 47  -14.5188 17920.7 -13565.8 -37.1254 22476.3
 06 11 2015  02 48  -14.5188 17920.5 -13566.5 -37.1271 22476.5
 06 11 2015  02 49  -14.5190 17920.2 -13566.3 -37.1270 22476.2
 06 11 2015  02 50  -14.5190 17920.1 -13566.5 -37.1277 22476.2
 06 11 2015  02 51  -14.5188 17919.8 -13566.5 -37.1280 22476.0
 06 11 2015  02 52  -14.5187 17919.7 -13566.3 -37.1279 22475.8
 06 11 2015  02 53  -14.5186 17919.7 -13566.6 -37.1284 22475.9
 06 11 2015  02 54  -14.5189 17919.6 -13566.4 -37.1283 22475.8
 06 11 2015  02 55  -14.5191 17919.5 -13566.4 -37.1283 22475.7
 06 11 2015  02 56  -14.5190 17919.3 -13567.0 -37.1298 22475.9
 06 11 2015  02 57  -14.5189 17919.2 -13566.7 -37.1294 22475.6
 06 11 2015  02 58  -14.5187 17919.3 -13567.4 -37.1307 22476.1
 06 11 2015  02 59  -14.5188 17919.4 -13566.9 -37.1294 22475.9
 06 11 2015  03 00  -14.5188 17919.6 -13566.7 -37.1289 22475.9
 06 11 2015  03 01  -14.5187 17919.7 -13567.2 -37.1297 22476.3
 06 11 2015  03 02  -14.5185 17919.7 -13567.4 -37.1302 22476.5
 06 11 2015  03 03  -14.5186 17919.9 -13566.8 -37.1286 22476.2
 06 11 2015  03 04  -14.5184 17919.7 -13566.9 -37.1290 22476.2
 06 11 2015  03 05  -14.5181 17920.0 -13566.9 -37.1287 22476.3
 06 11 2015  03 06  -14.5179 17920.2 -13567.0 -37.1285 22476.5
 06 11 2015  03 07  -14.5179 17920.1 -13566.9 -37.1284 22476.5
 06 11 2015  03 08  -14.5178 17920.3 -13566.9 -37.1282 22476.6
 06 11 2015  03 09  -14.5178 17920.2 -13567.0 -37.1285 22476.6
 06 11 2015  03 10  -14.5177 17920.2 -13566.9 -37.1283 22476.5
 06 11 2015  03 11  -14.5177 17920.4 -13567.0 -37.1282 22476.7
 06 11 2015  03 12  -14.5179 17920.3 -13567.1 -37.1285 22476.7
 06 11 2015  03 13  -14.5177 17920.3 -13566.9 -37.1280 22476.6
 06 11 2015  03 14  -14.5176 17920.5 -13567.0 -37.1281 22476.9
 06 11 2015  03 15  -14.5175 17920.7 -13566.9 -37.1277 22476.9
 06 11 2015  03 16  -14.5174 17920.8 -13567.1 -37.1279 22477.1
 06 11 2015  03 17  -14.5175 17920.8 -13566.9 -37.1274 22477.1
 06 11 2015  03 18  -14.5172 17920.8 -13567.1 -37.1278 22477.1
 06 11 2015  03 19  -14.5170 17920.8 -13566.9 -37.1273 22477.0
 06 11 2015  03 20  -14.5167 17920.6 -13567.1 -37.1280 22477.0
 06 11 2015  03 21  -14.5164 17920.7 -13566.7 -37.1272 22476.8
 06 11 2015  03 22  -14.5162 17920.7 -13567.0 -37.1277 22477.0
 06 11 2015  03 23  -14.5160 17920.9 -13567.3 -37.1282 22477.3
 06 11 2015  03 24  -14.5161 17921.0 -13566.6 -37.1266 22477.0
 06 11 2015  03 25  -14.5160 17921.0 -13567.0 -37.1273 22477.2
 06 11 2015  03 26  -14.5161 17921.1 -13566.6 -37.1263 22477.0
 06 11 2015  03 27  -14.5163 17921.0 -13566.5 -37.1262 22476.9
 06 11 2015  03 28  -14.5163 17921.1 -13567.0 -37.1271 22477.3
 06 11 2015  03 29  -14.5162 17921.1 -13567.3 -37.1277 22477.5
 06 11 2015  03 30  -14.5166 17920.9 -13567.0 -37.1274 22477.2
 06 11 2015  03 31  -14.5169 17920.9 -13566.6 -37.1265 22476.9
 06 11 2015  03 32  -14.5170 17920.9 -13566.2 -37.1257 22476.7
 06 11 2015  03 33  -14.5172 17920.9 -13566.8 -37.1271 22477.1
 06 11 2015  03 34  -14.5172 17920.9 -13567.0 -37.1273 22477.2
 06 11 2015  03 35  -14.5173 17920.8 -13566.7 -37.1269 22476.8
 06 11 2015  03 36  -14.5171 17920.7 -13566.5 -37.1266 22476.7
 06 11 2015  03 37  -14.5168 17920.5 -13566.6 -37.1272 22476.6
 06 11 2015  03 38  -14.5160 17920.5 -13567.1 -37.1282 22476.9
 06 11 2015  03 39  -14.5159 17920.6 -13566.7 -37.1271 22476.7
 06 11 2015  03 40  -14.5159 17920.8 -13567.0 -37.1275 22477.1
 06 11 2015  03 41  -14.5157 17921.1 -13566.9 -37.1268 22477.3
 06 11 2015  03 42  -14.5155 17921.2 -13567.1 -37.1272 22477.5
 06 11 2015  03 43  -14.5152 17921.5 -13566.8 -37.1262 22477.5
 06 11 2015  03 44  -14.5152 17921.5 -13567.0 -37.1265 22477.6
 06 11 2015  03 45  -14.5154 17921.7 -13567.1 -37.1265 22477.8
 06 11 2015  03 46  -14.5157 17921.6 -13567.2 -37.1268 22477.8
 06 11 2015  03 47  -14.5157 17921.7 -13567.0 -37.1262 22477.8
 06 11 2015  03 48  -14.5156 17921.7 -13567.0 -37.1261 22477.7
 06 11 2015  03 49  -14.5154 17921.7 -13566.8 -37.1259 22477.7
 06 11 2015  03 50  -14.5150 17921.9 -13566.8 -37.1255 22477.8
 06 11 2015  03 51  -14.5148 17921.8 -13566.9 -37.1258 22477.8
 06 11 2015  03 52  -14.5143 17922.0 -13566.8 -37.1252 22477.9
 06 11 2015  03 53  -14.5143 17922.1 -13566.8 -37.1252 22478.0
 06 11 2015  03 54  -14.5145 17921.9 -13566.8 -37.1254 22477.9
 06 11 2015  03 55  -14.5147 17922.0 -13567.0 -37.1257 22478.0
 06 11 2015  03 56  -14.5148 17922.0 -13566.7 -37.1252 22477.8
 06 11 2015  03 57  -14.5148 17921.9 -13566.7 -37.1253 22477.8
 06 11 2015  03 58  -14.5147 17921.8 -13566.8 -37.1257 22477.7
 06 11 2015  03 59  -14.5149 17921.7 -13567.0 -37.1262 22477.8
 06 11 2015  04 00  -14.5157 17921.5 -13566.9 -37.1263 22477.6
 06 11 2015  04 01  -14.5167 17921.2 -13566.8 -37.1266 22477.3
 06 11 2015  04 02  -14.5175 17920.9 -13566.9 -37.1271 22477.1
 06 11 2015  04 03  -14.5182 17920.8 -13566.8 -37.1270 22476.9
 06 11 2015  04 04  -14.5185 17920.7 -13566.9 -37.1275 22476.9
 06 11 2015  04 05  -14.5187 17920.8 -13567.0 -37.1274 22477.1
 06 11 2015  04 06  -14.5188 17921.0 -13567.0 -37.1273 22477.2
 06 11 2015  04 07  -14.5187 17921.2 -13567.0 -37.1270 22477.4
 06 11 2015  04 08  -14.5185 17921.4 -13567.3 -37.1273 22477.8
 06 11 2015  04 09  -14.5181 17921.4 -13567.2 -37.1269 22477.7
 06 11 2015  04 10  -14.5175 17921.5 -13567.4 -37.1274 22477.9
 06 11 2015  04 11  -14.5175 17921.4 -13567.1 -37.1268 22477.6
 06 11 2015  04 12  -14.5177 17921.5 -13567.1 -37.1268 22477.7
 06 11 2015  04 13  -14.5177 17921.6 -13567.2 -37.1268 22477.9
 06 11 2015  04 14  -14.5178 17921.6 -13567.3 -37.1269 22477.9
 06 11 2015  04 15  -14.5181 17921.6 -13567.0 -37.1263 22477.7
 06 11 2015  04 16  -14.5184 17921.8 -13567.3 -37.1265 22478.1
 06 11 2015  04 17  -14.5191 17921.8 -13567.1 -37.1263 22477.9
 06 11 2015  04 18  -14.5198 17921.7 -13567.4 -37.1271 22478.1
 06 11 2015  04 19  -14.5208 17921.7 -13567.0 -37.1262 22477.7
 06 11 2015  04 20  -14.5215 17921.6 -13567.3 -37.1270 22477.9
 06 11 2015  04 21  -14.5223 17921.6 -13566.9 -37.1261 22477.6
 06 11 2015  04 22  -14.5228 17921.6 -13566.8 -37.1258 22477.6
 06 11 2015  04 23  -14.5232 17921.7 -13566.9 -37.1259 22477.7
 06 11 2015  04 24  -14.5236 17921.9 -13567.2 -37.1263 22478.0
 06 11 2015  04 25  -14.5241 17922.0 -13566.7 -37.1252 22477.8
 06 11 2015  04 26  -14.5243 17922.0 -13567.7 -37.1272 22478.4
 06 11 2015  04 27  -14.5245 17922.1 -13567.4 -37.1263 22478.4
 06 11 2015  04 28  -14.5246 17922.2 -13567.4 -37.1262 22478.5
 06 11 2015  04 29  -14.5248 17922.2 -13567.5 -37.1263 22478.5
 06 11 2015  04 30  -14.5250 17922.3 -13567.3 -37.1260 22478.4
 06 11 2015  04 31  -14.5251 17922.2 -13567.2 -37.1259 22478.3
 06 11 2015  04 32  -14.5249 17922.3 -13567.4 -37.1261 22478.5
 06 11 2015  04 33  -14.5249 17922.2 -13567.3 -37.1261 22478.4
 06 11 2015  04 34  -14.5247 17922.1 -13567.4 -37.1264 22478.3
 06 11 2015  04 35  -14.5248 17922.0 -13567.3 -37.1264 22478.2
 06 11 2015  04 36  -14.5249 17922.1 -13567.4 -37.1265 22478.3
 06 11 2015  04 37  -14.5251 17922.1 -13567.3 -37.1263 22478.3
 06 11 2015  04 38  -14.5253 17922.1 -13567.3 -37.1260 22478.3
 06 11 2015  04 39  -14.5255 17922.1 -13567.1 -37.1258 22478.1
 06 11 2015  04 40  -14.5256 17922.1 -13567.6 -37.1269 22478.5
 06 11 2015  04 41  -14.5260 17922.1 -13567.3 -37.1263 22478.3
 06 11 2015  04 42  -14.5262 17922.2 -13567.6 -37.1266 22478.5
 06 11 2015  04 43  -14.5265 17922.3 -13567.7 -37.1268 22478.7
 06 11 2015  04 44  -14.5269 17922.2 -13567.3 -37.1261 22478.4
 06 11 2015  04 45  -14.5272 17922.2 -13567.4 -37.1262 22478.4
 06 11 2015  04 46  -14.5273 17922.2 -13567.8 -37.1269 22478.7
 06 11 2015  04 47  -14.5277 17922.2 -13567.3 -37.1260 22478.4
 06 11 2015  04 48  -14.5278 17922.4 -13567.6 -37.1264 22478.7
 06 11 2015  04 49  -14.5280 17922.3 -13567.8 -37.1268 22478.7
 06 11 2015  04 50  -14.5278 17922.4 -13567.5 -37.1260 22478.6
 06 11 2015  04 51  -14.5277 17922.4 -13567.5 -37.1261 22478.6
 06 11 2015  04 52  -14.5275 17922.5 -13567.8 -37.1265 22478.9
 06 11 2015  04 53  -14.5273 17922.6 -13567.6 -37.1259 22478.9
 06 11 2015  04 54  -14.5272 17922.6 -13567.6 -37.1261 22478.9
 06 11 2015  04 55  -14.5272 17922.4 -13567.7 -37.1265 22478.8
 06 11 2015  04 56  -14.5273 17922.4 -13567.1 -37.1254 22478.4
 06 11 2015  04 57  -14.5273 17922.3 -13567.4 -37.1261 22478.6
 06 11 2015  04 58  -14.5275 17922.2 -13567.3 -37.1260 22478.4
 06 11 2015  04 59  -14.5275 17922.1 -13567.9 -37.1273 22478.7
 06 11 2015  05 00  -14.5276 17922.0 -13567.6 -37.1269 22478.4
 06 11 2015  05 01  -14.5277 17922.0 -13567.6 -37.1270 22478.4
 06 11 2015  05 02  -14.5278 17922.0 -13567.7 -37.1270 22478.5
 06 11 2015  05 03  -14.5281 17921.9 -13567.5 -37.1269 22478.3
 06 11 2015  05 04  -14.5281 17922.1 -13567.7 -37.1269 22478.5
 06 11 2015  05 05  -14.5282 17922.1 -13567.7 -37.1270 22478.5
 06 11 2015  05 06  -14.5285 17922.0 -13567.5 -37.1266 22478.3
 06 11 2015  05 07  -14.5286 17922.1 -13567.6 -37.1267 22478.4
 06 11 2015  05 08  -14.5288 17922.0 -13567.6 -37.1268 22478.4
 06 11 2015  05 09  -14.5289 17922.1 -13567.6 -37.1269 22478.4
 06 11 2015  05 10  -14.5292 17922.0 -13567.7 -37.1270 22478.4
 06 11 2015  05 11  -14.5295 17921.9 -13567.5 -37.1269 22478.3
 06 11 2015  05 12  -14.5297 17922.0 -13567.6 -37.1271 22478.4
 06 11 2015  05 13  -14.5299 17922.2 -13567.3 -37.1261 22478.4
 06 11 2015  05 14  -14.5299 17922.6 -13567.6 -37.1260 22478.9
 06 11 2015  05 15  -14.5303 17922.7 -13567.7 -37.1260 22479.0
 06 11 2015  05 16  -14.5303 17923.1 -13567.3 -37.1247 22479.1
 06 11 2015  05 17  -14.5299 17923.7 -13567.2 -37.1234 22479.5
 06 11 2015  05 18  -14.5293 17924.2 -13567.6 -37.1236 22480.1
 06 11 2015  05 19  -14.5291 17924.7 -13567.7 -37.1230 22480.6
 06 11 2015  05 20  -14.5290 17924.9 -13567.1 -37.1216 22480.4
 06 11 2015  05 21  -14.5286 17925.2 -13567.6 -37.1220 22481.0
 06 11 2015  05 22  -14.5284 17925.3 -13567.6 -37.1219 22481.1
 06 11 2015  05 23  -14.5281 17925.6 -13567.5 -37.1212 22481.3
 06 11 2015  05 24  -14.5279 17925.9 -13566.9 -37.1194 22481.0
 06 11 2015  05 25  -14.5275 17925.9 -13567.3 -37.1203 22481.3
 06 11 2015  05 26  -14.5277 17925.9 -13567.0 -37.1198 22481.1
 06 11 2015  05 27  -14.5277 17925.9 -13566.5 -37.1188 22480.9
 06 11 2015  05 28  -14.5275 17926.1 -13567.3 -37.1201 22481.4
 06 11 2015  05 29  -14.5276 17926.1 -13567.0 -37.1195 22481.3
 06 11 2015  05 30  -14.5280 17926.1 -13566.8 -37.1191 22481.2
 06 11 2015  05 31  -14.5282 17926.1 -13566.9 -37.1192 22481.2
 06 11 2015  05 32  -14.5286 17926.1 -13566.4 -37.1181 22480.9
 06 11 2015  05 33  -14.5289 17926.2 -13566.3 -37.1179 22480.9
 06 11 2015  05 34  -14.5292 17926.2 -13566.8 -37.1189 22481.3
 06 11 2015  05 35  -14.5294 17926.2 -13567.2 -37.1196 22481.5
 06 11 2015  05 36  -14.5295 17926.3 -13566.9 -37.1189 22481.4
 06 11 2015  05 37  -14.5299 17926.3 -13566.9 -37.1189 22481.4
 06 11 2015  05 38  -14.5301 17926.4 -13566.6 -37.1181 22481.3
 06 11 2015  05 39  -14.5305 17926.4 -13566.6 -37.1182 22481.3
 06 11 2015  05 40  -14.5310 17926.2 -13566.3 -37.1177 22481.0
 06 11 2015  05 41  -14.5312 17926.2 -13567.1 -37.1195 22481.4
 06 11 2015  05 42  -14.5316 17926.2 -13566.5 -37.1181 22481.1
 06 11 2015  05 43  -14.5318 17926.3 -13566.7 -37.1185 22481.2
 06 11 2015  05 44  -14.5318 17926.3 -13567.0 -37.1192 22481.4
 06 11 2015  05 45  -14.5322 17926.2 -13566.5 -37.1183 22481.1
 06 11 2015  05 46  -14.5325 17926.3 -13566.4 -37.1180 22481.1
 06 11 2015  05 47  -14.5331 17926.2 -13566.8 -37.1189 22481.3
 06 11 2015  05 48  -14.5335 17926.4 -13566.6 -37.1181 22481.2
 06 11 2015  05 49  -14.5339 17926.5 -13566.5 -37.1177 22481.3
 06 11 2015  05 50  -14.5344 17926.6 -13565.8 -37.1161 22481.0
 06 11 2015  05 51  -14.5348 17926.8 -13566.3 -37.1170 22481.4
 06 11 2015  05 52  -14.5351 17926.9 -13566.0 -37.1162 22481.3
 06 11 2015  05 53  -14.5353 17926.9 -13566.2 -37.1165 22481.4
 06 11 2015  05 54  -14.5354 17927.0 -13565.7 -37.1153 22481.2
 06 11 2015  05 55  -14.5351 17927.2 -13566.3 -37.1163 22481.7
 06 11 2015  05 56  -14.5352 17927.2 -13565.9 -37.1155 22481.5
 06 11 2015  05 57  -14.5348 17927.2 -13566.7 -37.1171 22482.0
 06 11 2015  05 58  -14.5338 17927.3 -13566.9 -37.1173 22482.2
 06 11 2015  05 59  -14.5330 17927.5 -13566.6 -37.1164 22482.1
 06 11 2015  06 00  -14.5327 17927.6 -13566.3 -37.1157 22482.1
 06 11 2015  06 01  -14.5322 17927.7 -13566.9 -37.1169 22482.5
 06 11 2015  06 02  -14.5322 17927.6 -13566.4 -37.1160 22482.2
 06 11 2015  06 03  -14.5320 17927.7 -13565.8 -37.1144 22481.8
 06 11 2015  06 04  -14.5321 17927.6 -13565.9 -37.1149 22481.8
 06 11 2015  06 05  -14.5321 17927.6 -13566.3 -37.1156 22482.0
 06 11 2015  06 06  -14.5323 17927.6 -13565.7 -37.1144 22481.7
 06 11 2015  06 07  -14.5323 17927.8 -13566.3 -37.1154 22482.3
 06 11 2015  06 08  -14.5328 17928.0 -13566.0 -37.1144 22482.2
 06 11 2015  06 09  -14.5331 17928.0 -13566.2 -37.1148 22482.3
 06 11 2015  06 10  -14.5333 17928.0 -13566.2 -37.1149 22482.4
 06 11 2015  06 11  -14.5334 17928.1 -13566.1 -37.1145 22482.3
 06 11 2015  06 12  -14.5339 17928.2 -13566.2 -37.1146 22482.5
 06 11 2015  06 13  -14.5342 17928.4 -13566.1 -37.1140 22482.6
 06 11 2015  06 14  -14.5345 17928.5 -13566.3 -37.1142 22482.8
 06 11 2015  06 15  -14.5347 17928.7 -13566.3 -37.1141 22482.9
 06 11 2015  06 16  -14.5353 17928.7 -13566.2 -37.1138 22482.9
 06 11 2015  06 17  -14.5356 17928.7 -13566.6 -37.1146 22483.2
 06 11 2015  06 18  -14.5360 17928.7 -13566.0 -37.1134 22482.8
 06 11 2015  06 19  -14.5362 17928.8 -13566.1 -37.1134 22482.9
 06 11 2015  06 20  -14.5366 17928.9 -13565.8 -37.1127 22482.8
 06 11 2015  06 21  -14.5369 17929.0 -13565.7 -37.1124 22482.8
 06 11 2015  06 22  -14.5372 17929.0 -13565.5 -37.1120 22482.7
 06 11 2015  06 23  -14.5368 17929.1 -13566.1 -37.1128 22483.2
 06 11 2015  06 24  -14.5366 17929.3 -13565.8 -37.1122 22483.1
 06 11 2015  06 25  -14.5364 17929.3 -13565.9 -37.1122 22483.1
 06 11 2015  06 26  -14.5365 17929.1 -13565.5 -37.1117 22482.8
 06 11 2015  06 27  -14.5368 17929.2 -13565.7 -37.1120 22483.0
 06 11 2015  06 28  -14.5370 17929.0 -13566.3 -37.1137 22483.2
 06 11 2015  06 29  -14.5374 17929.0 -13565.4 -37.1117 22482.6
 06 11 2015  06 30  -14.5374 17928.7 -13565.9 -37.1132 22482.7
 06 11 2015  06 31  -14.5374 17928.6 -13565.6 -37.1126 22482.4
 06 11 2015  06 32  -14.5376 17928.3 -13565.6 -37.1131 22482.2
 06 11 2015  06 33  -14.5377 17928.0 -13565.4 -37.1133 22481.8
 06 11 2015  06 34  -14.5376 17927.8 -13565.5 -37.1138 22481.7
 06 11 2015  06 35  -14.5374 17927.5 -13565.7 -37.1145 22481.6
 06 11 2015  06 36  -14.5374 17927.3 -13565.7 -37.1149 22481.4
 06 11 2015  06 37  -14.5377 17927.2 -13565.5 -37.1148 22481.2
 06 11 2015  06 38  -14.5377 17927.4 -13565.5 -37.1144 22481.4
 06 11 2015  06 39  -14.5380 17927.4 -13565.6 -37.1145 22481.4
 06 11 2015  06 40  -14.5382 17927.4 -13565.6 -37.1146 22481.5
 06 11 2015  06 41  -14.5385 17927.4 -13565.7 -37.1148 22481.6
 06 11 2015  06 42  -14.5382 17927.4 -13565.9 -37.1151 22481.6
 06 11 2015  06 43  -14.5381 17927.3 -13565.6 -37.1147 22481.4
 06 11 2015  06 44  -14.5379 17927.3 -13566.0 -37.1154 22481.6
 06 11 2015  06 45  -14.5383 17927.4 -13565.9 -37.1152 22481.7
 06 11 2015  06 46  -14.5392 17927.3 -13565.4 -37.1142 22481.3
 06 11 2015  06 47  -14.5399 17927.5 -13565.2 -37.1136 22481.3
 06 11 2015  06 48  -14.5403 17927.4 -13565.6 -37.1146 22481.5
 06 11 2015  06 49  -14.5405 17927.5 -13565.0 -37.1131 22481.2
 06 11 2015  06 50  -14.5398 17927.4 -13565.5 -37.1144 22481.4
 06 11 2015  06 51  -14.5390 17927.5 -13565.9 -37.1151 22481.7
 06 11 2015  06 52  -14.5386 17927.6 -13565.5 -37.1140 22481.6
 06 11 2015  06 53  -14.5379 17928.0 -13565.8 -37.1142 22482.1
 06 11 2015  06 54  -14.5377 17928.0 -13565.5 -37.1134 22481.9
 06 11 2015  06 55  -14.5377 17928.1 -13565.5 -37.1133 22482.0
 06 11 2015  06 56  -14.5376 17928.1 -13565.6 -37.1136 22482.1
 06 11 2015  06 57  -14.5378 17928.2 -13565.2 -37.1126 22481.9
 06 11 2015  06 58  -14.5372 17928.5 -13565.7 -37.1132 22482.5
 06 11 2015  06 59  -14.5372 17928.6 -13565.8 -37.1132 22482.6
 06 11 2015  07 00  -14.5375 17928.8 -13566.1 -37.1134 22482.9
 06 11 2015  07 01  -14.5380 17929.2 -13565.4 -37.1115 22482.8
 06 11 2015  07 02  -14.5390 17929.8 -13565.2 -37.1099 22483.2
 06 11 2015  07 03  -14.5392 17930.2 -13565.6 -37.1102 22483.7
 06 11 2015  07 04  -14.5391 17930.6 -13565.8 -37.1101 22484.1
 06 11 2015  07 05  -14.5389 17930.9 -13565.7 -37.1094 22484.4
 06 11 2015  07 06  -14.5387 17931.1 -13565.1 -37.1078 22484.1
 06 11 2015  07 07  -14.5386 17931.0 -13565.4 -37.1085 22484.2
 06 11 2015  07 08  -14.5384 17931.0 -13565.5 -37.1088 22484.3
 06 11 2015  07 09  -14.5393 17931.1 -13565.6 -37.1088 22484.4
 06 11 2015  07 10  -14.5404 17931.1 -13565.2 -37.1081 22484.2
 06 11 2015  07 11  -14.5421 17931.1 -13565.0 -37.1077 22484.1
 06 11 2015  07 12  -14.5434 17931.2 -13565.2 -37.1079 22484.3
 06 11 2015  07 13  -14.5445 17931.3 -13565.8 -37.1089 22484.7
 06 11 2015  07 14  -14.5453 17931.2 -13564.9 -37.1074 22484.1
 06 11 2015  07 15  -14.5455 17931.1 -13564.8 -37.1071 22484.0
 06 11 2015  07 16  -14.5452 17931.1 -13565.4 -37.1084 22484.3
 06 11 2015  07 17  -14.5452 17930.9 -13564.5 -37.1070 22483.6
 06 11 2015  07 18  -14.5448 17931.1 -13564.8 -37.1071 22483.9
 06 11 2015  07 19  -14.5445 17931.1 -13564.9 -37.1073 22484.0
 06 11 2015  07 20  -14.5439 17931.2 -13564.6 -37.1066 22483.9
 06 11 2015  07 21  -14.5432 17931.4 -13564.7 -37.1067 22484.1
 06 11 2015  07 22  -14.5427 17931.4 -13565.1 -37.1073 22484.4
 06 11 2015  07 23  -14.5423 17931.5 -13564.7 -37.1065 22484.2
 06 11 2015  07 24  -14.5426 17931.4 -13564.7 -37.1067 22484.1
 06 11 2015  07 25  -14.5426 17931.5 -13564.6 -37.1062 22484.2
 06 11 2015  07 26  -14.5432 17931.7 -13565.1 -37.1070 22484.6
 06 11 2015  07 27  -14.5438 17931.9 -13564.8 -37.1061 22484.6
 06 11 2015  07 28  -14.5444 17931.9 -13564.7 -37.1057 22484.5
 06 11 2015  07 29  -14.5450 17931.9 -13564.7 -37.1058 22484.6
 06 11 2015  07 30  -14.5457 17931.9 -13564.8 -37.1061 22484.6
 06 11 2015  07 31  -14.5463 17931.9 -13565.1 -37.1067 22484.7
 06 11 2015  07 32  -14.5466 17931.9 -13564.7 -37.1057 22484.5
 06 11 2015  07 33  -14.5471 17932.0 -13564.5 -37.1054 22484.5
 06 11 2015  07 34  -14.5475 17932.1 -13564.9 -37.1060 22484.8
 06 11 2015  07 35  -14.5478 17932.3 -13564.8 -37.1053 22484.9
 06 11 2015  07 36  -14.5480 17932.5 -13564.9 -37.1053 22485.1
 06 11 2015  07 37  -14.5479 17932.7 -13564.5 -37.1041 22485.1
 06 11 2015  07 38  -14.5476 17932.8 -13564.9 -37.1048 22485.3
 06 11 2015  07 39  -14.5470 17932.8 -13564.7 -37.1044 22485.3
 06 11 2015  07 40  -14.5467 17932.8 -13564.0 -37.1030 22484.8
 06 11 2015  07 41  -14.5463 17932.6 -13564.7 -37.1048 22485.1
 06 11 2015  07 42  -14.5461 17932.7 -13564.3 -37.1038 22484.9
 06 11 2015  07 43  -14.5458 17932.7 -13565.2 -37.1056 22485.4
 06 11 2015  07 44  -14.5458 17932.8 -13563.8 -37.1027 22484.7
 06 11 2015  07 45  -14.5455 17932.8 -13564.3 -37.1037 22485.0
 06 11 2015  07 46  -14.5454 17932.8 -13564.7 -37.1044 22485.2
 06 11 2015  07 47  -14.5451 17932.9 -13564.4 -37.1037 22485.1
 06 11 2015  07 48  -14.5445 17932.8 -13564.2 -37.1035 22485.0
 06 11 2015  07 49  -14.5441 17932.6 -13564.1 -37.1035 22484.7
 06 11 2015  07 50  -14.5439 17932.6 -13564.4 -37.1041 22484.9
 06 11 2015  07 51  -14.5439 17932.5 -13564.5 -37.1046 22484.9
 06 11 2015  07 52  -14.5440 17932.4 -13564.5 -37.1046 22484.8
 06 11 2015  07 53  -14.5442 17932.4 -13564.7 -37.1050 22484.9
 06 11 2015  07 54  -14.5442 17932.5 -13564.6 -37.1046 22484.9
 06 11 2015  07 55  -14.5444 17932.4 -13564.9 -37.1054 22485.1
 06 11 2015  07 56  -14.5447 17932.5 -13564.5 -37.1045 22484.9
 06 11 2015  07 57  -14.5450 17932.5 -13563.9 -37.1032 22484.5
 06 11 2015  07 58  -14.5450 17932.3 -13564.5 -37.1049 22484.8
 06 11 2015  07 59  -14.5451 17932.3 -13564.1 -37.1041 22484.5
 06 11 2015  08 00  -14.5453 17932.2 -13564.3 -37.1045 22484.5
 06 11 2015  08 01  -14.5456 17932.2 -13565.0 -37.1061 22485.0
 06 11 2015  08 02  -14.5460 17932.1 -13564.5 -37.1051 22484.6
 06 11 2015  08 03  -14.5461 17932.2 -13564.5 -37.1051 22484.6
 06 11 2015  08 04  -14.5463 17932.1 -13564.4 -37.1049 22484.5
 06 11 2015  08 05  -14.5464 17932.0 -13564.4 -37.1050 22484.4
 06 11 2015  08 06  -14.5467 17931.9 -13564.3 -37.1050 22484.2
 06 11 2015  08 07  -14.5469 17931.8 -13564.3 -37.1051 22484.2
 06 11 2015  08 08  -14.5469 17931.8 -13564.2 -37.1050 22484.2
 06 11 2015  08 09  -14.5467 17931.6 -13564.3 -37.1053 22484.1
 06 11 2015  08 10  -14.5464 17931.4 -13564.3 -37.1058 22483.9
 06 11 2015  08 11  -14.5457 17931.3 -13564.4 -37.1062 22483.9
 06 11 2015  08 12  -14.5447 17931.3 -13564.4 -37.1062 22483.8
 06 11 2015  08 13  -14.5441 17931.0 -13564.2 -37.1062 22483.5
 06 11 2015  08 14  -14.5433 17930.7 -13563.8 -37.1058 22483.0
 06 11 2015  08 15  -14.5429 17930.5 -13564.5 -37.1077 22483.3
 06 11 2015  08 16  -14.5428 17930.3 -13564.5 -37.1079 22483.2
 06 11 2015  08 17  -14.5427 17930.3 -13564.6 -37.1082 22483.2
 06 11 2015  08 18  -14.5426 17930.4 -13564.1 -37.1069 22483.0
 06 11 2015  08 19  -14.5418 17930.6 -13564.2 -37.1069 22483.2
 06 11 2015  08 20  -14.5415 17930.7 -13564.7 -37.1075 22483.6
 06 11 2015  08 21  -14.5417 17930.8 -13564.6 -37.1072 22483.6
 06 11 2015  08 22  -14.5416 17930.8 -13564.5 -37.1071 22483.5
 06 11 2015  08 23  -14.5412 17930.6 -13564.5 -37.1074 22483.4
 06 11 2015  08 24  -14.5412 17930.3 -13564.7 -37.1083 22483.3
 06 11 2015  08 25  -14.5410 17930.2 -13564.3 -37.1077 22483.0
 06 11 2015  08 26  -14.5407 17930.1 -13564.2 -37.1077 22482.8
 06 11 2015  08 27  -14.5404 17930.0 -13564.6 -37.1086 22482.9
 06 11 2015  08 28  -14.5398 17929.8 -13564.5 -37.1087 22482.7
 06 11 2015  08 29  -14.5395 17929.7 -13564.3 -37.1085 22482.5
 06 11 2015  08 30  -14.5392 17929.6 -13564.3 -37.1086 22482.5
 06 11 2015  08 31  -14.5389 17929.5 -13564.6 -37.1095 22482.6
 06 11 2015  08 32  -14.5388 17929.4 -13564.6 -37.1093 22482.5
 06 11 2015  08 33  -14.5386 17929.5 -13564.6 -37.1093 22482.5
 06 11 2015  08 34  -14.5383 17929.5 -13565.0 -37.1101 22482.8
 06 11 2015  08 35  -14.5380 17929.7 -13564.4 -37.1086 22482.5
 06 11 2015  08 36  -14.5377 17929.6 -13564.2 -37.1084 22482.4
 06 11 2015  08 37  -14.5374 17929.6 -13565.0 -37.1100 22482.9
 06 11 2015  08 38  -14.5370 17929.6 -13565.3 -37.1105 22483.0
 06 11 2015  08 39  -14.5367 17929.6 -13565.2 -37.1104 22483.0
 06 11 2015  08 40  -14.5363 17929.6 -13565.1 -37.1101 22482.9
 06 11 2015  08 41  -14.5364 17929.6 -13565.4 -37.1108 22483.1
 06 11 2015  08 42  -14.5364 17929.7 -13565.1 -37.1100 22483.0
 06 11 2015  08 43  -14.5360 17929.8 -13565.0 -37.1098 22483.1
 06 11 2015  08 44  -14.5356 17930.2 -13564.6 -37.1082 22483.1
 06 11 2015  08 45  -14.5357 17930.3 -13564.7 -37.1083 22483.2
 06 11 2015  08 46  -14.5357 17930.4 -13565.0 -37.1088 22483.5
 06 11 2015  08 47  -14.5359 17930.6 -13565.3 -37.1089 22483.9
 06 11 2015  08 48  -14.5359 17930.8 -13565.3 -37.1089 22484.0
 06 11 2015  08 49  -14.5357 17930.9 -13565.6 -37.1093 22484.3
 06 11 2015  08 50  -14.5356 17930.9 -13565.7 -37.1093 22484.4
 06 11 2015  08 51  -14.5358 17931.1 -13564.9 -37.1075 22484.0
 06 11 2015  08 52  -14.5358 17931.1 -13565.4 -37.1086 22484.3
 06 11 2015  08 53  -14.5356 17931.3 -13565.5 -37.1083 22484.6
 06 11 2015  08 54  -14.5354 17931.5 -13565.8 -37.1088 22484.9
 06 11 2015  08 55  -14.5350 17931.6 -13565.8 -37.1087 22485.0
 06 11 2015  08 56  -14.5352 17931.6 -13565.6 -37.1082 22484.9
 06 11 2015  08 57  -14.5353 17931.9 -13565.3 -37.1072 22484.9
 06 11 2015  08 58  -14.5353 17932.0 -13565.4 -37.1071 22485.0
 06 11 2015  08 59  -14.5354 17931.8 -13565.6 -37.1079 22485.0
 06 11 2015  09 00  -14.5352 17931.9 -13565.3 -37.1070 22484.8
 06 11 2015  09 01  -14.5349 17931.7 -13565.0 -37.1067 22484.6
 06 11 2015  09 02  -14.5342 17931.9 -13565.7 -37.1077 22485.2
 06 11 2015  09 03  -14.5342 17932.0 -13565.3 -37.1069 22484.9
 06 11 2015  09 04  -14.5337 17932.1 -13565.8 -37.1077 22485.4
 06 11 2015  09 05  -14.5338 17932.3 -13565.8 -37.1076 22485.5
 06 11 2015  09 06  -14.5342 17932.5 -13565.9 -37.1073 22485.7
 06 11 2015  09 07  -14.5339 17932.6 -13565.9 -37.1073 22485.8
 06 11 2015  09 08  -14.5337 17932.7 -13566.0 -37.1073 22486.0
 06 11 2015  09 09  -14.5333 17932.6 -13566.3 -37.1080 22486.1
 06 11 2015  09 10  -14.5332 17932.6 -13566.1 -37.1076 22486.0
 06 11 2015  09 11  -14.5326 17932.7 -13566.0 -37.1073 22485.9
 06 11 2015  09 12  -14.5325 17932.7 -13565.8 -37.1067 22485.8
 06 11 2015  09 13  -14.5326 17932.7 -13566.3 -37.1079 22486.2
 06 11 2015  09 14  -14.5326 17932.9 -13566.2 -37.1075 22486.2
 06 11 2015  09 15  -14.5327 17933.0 -13566.2 -37.1072 22486.3
 06 11 2015  09 16  -14.5329 17933.1 -13566.3 -37.1074 22486.4
 06 11 2015  09 17  -14.5332 17933.1 -13566.5 -37.1077 22486.5
 06 11 2015  09 18  -14.5333 17933.2 -13566.6 -37.1078 22486.7
 06 11 2015  09 19  -14.5330 17933.2 -13566.6 -37.1078 22486.7
 06 11 2015  09 20  -14.5328 17933.2 -13566.5 -37.1075 22486.7
 06 11 2015  09 21  -14.5325 17933.4 -13566.6 -37.1075 22486.9
 06 11 2015  09 22  -14.5323 17933.5 -13567.0 -37.1080 22487.2
 06 11 2015  09 23  -14.5325 17933.8 -13567.0 -37.1077 22487.4
 06 11 2015  09 24  -14.5333 17934.1 -13567.0 -37.1073 22487.7
 06 11 2015  09 25  -14.5337 17934.1 -13567.2 -37.1074 22487.8
 06 11 2015  09 26  -14.5339 17934.2 -13567.1 -37.1072 22487.9
 06 11 2015  09 27  -14.5343 17934.3 -13567.0 -37.1069 22487.8
 06 11 2015  09 28  -14.5352 17934.4 -13567.2 -37.1071 22488.0
 06 11 2015  09 29  -14.5353 17934.5 -13567.3 -37.1071 22488.2
 06 11 2015  09 30  -14.5351 17934.6 -13567.4 -37.1072 22488.4
 06 11 2015  09 31  -14.5345 17935.0 -13567.4 -37.1066 22488.6
 06 11 2015  09 32  -14.5341 17935.6 -13567.6 -37.1062 22489.2
 06 11 2015  09 33  -14.5341 17936.1 -13567.6 -37.1053 22489.6
 06 11 2015  09 34  -14.5342 17936.5 -13567.8 -37.1051 22490.0
 06 11 2015  09 35  -14.5337 17937.0 -13567.7 -37.1041 22490.4
 06 11 2015  09 36  -14.5333 17937.4 -13568.1 -37.1042 22491.0
 06 11 2015  09 37  -14.5341 17937.9 -13568.0 -37.1032 22491.3
 06 11 2015  09 38  -14.5356 17938.3 -13568.3 -37.1033 22491.8
 06 11 2015  09 39  -14.5374 17938.5 -13567.7 -37.1017 22491.6
 06 11 2015  09 40  -14.5397 17938.8 -13567.9 -37.1019 22491.9
 06 11 2015  09 41  -14.5421 17939.0 -13568.1 -37.1018 22492.3
 06 11 2015  09 42  -14.5456 17939.5 -13567.6 -37.1000 22492.4
 06 11 2015  09 43  -14.5491 17939.8 -13567.6 -37.0995 22492.6
 06 11 2015  09 44  -14.5515 17940.1 -13567.6 -37.0991 22492.8
 06 11 2015  09 45  -14.5524 17940.1 -13567.5 -37.0989 22492.8
 06 11 2015  09 46  -14.5527 17940.4 -13567.7 -37.0990 22493.1
 06 11 2015  09 47  -14.5531 17940.5 -13567.3 -37.0978 22493.0
 06 11 2015  09 48  -14.5533 17940.8 -13567.5 -37.0979 22493.4
 06 11 2015  09 49  -14.5539 17941.1 -13567.8 -37.0980 22493.7
 06 11 2015  09 50  -14.5548 17941.4 -13567.7 -37.0975 22493.9
 06 11 2015  09 51  -14.5557 17941.5 -13567.6 -37.0968 22494.0
 06 11 2015  09 52  -14.5565 17941.8 -13567.7 -37.0967 22494.2
 06 11 2015  09 53  -14.5568 17941.8 -13568.0 -37.0973 22494.4
 06 11 2015  09 54  -14.5573 17942.0 -13567.6 -37.0963 22494.3
 06 11 2015  09 55  -14.5582 17942.0 -13567.6 -37.0961 22494.3
 06 11 2015  09 56  -14.5591 17942.1 -13567.9 -37.0967 22494.6
 06 11 2015  09 57  -14.5597 17942.3 -13568.2 -37.0969 22494.9
 06 11 2015  09 58  -14.5607 17942.3 -13567.6 -37.0957 22494.6
 06 11 2015  09 59  -14.5613 17942.4 -13567.7 -37.0958 22494.8
 06 11 2015  10 00  -14.5626 17942.6 -13567.9 -37.0959 22495.0
 06 11 2015  10 01  -14.5636 17942.5 -13567.9 -37.0959 22494.9
 06 11 2015  10 02  -14.5651 17942.7 -13567.3 -37.0945 22494.8
 06 11 2015  10 03  -14.5653 17942.9 -13568.2 -37.0962 22495.4
 06 11 2015  10 04  -14.5650 17942.9 -13567.7 -37.0951 22495.1
 06 11 2015  10 05  -14.5632 17942.6 -13567.6 -37.0953 22494.8
 06 11 2015  10 06  -14.5617 17942.2 -13567.5 -37.0956 22494.4
 06 11 2015  10 07  -14.5610 17942.1 -13567.5 -37.0959 22494.4
 06 11 2015  10 08  -14.5608 17942.1 -13567.8 -37.0964 22494.5
 06 11 2015  10 09  -14.5614 17942.0 -13567.8 -37.0967 22494.5
 06 11 2015  10 10  -14.5620 17941.7 -13567.7 -37.0970 22494.1
 06 11 2015  10 11  -14.5622 17941.2 -13567.8 -37.0977 22493.8
 06 11 2015  10 12  -14.5622 17940.9 -13567.7 -37.0981 22493.5
 06 11 2015  10 13  -14.5622 17940.9 -13567.8 -37.0982 22493.5
 06 11 2015  10 14  -14.5628 17940.9 -13568.0 -37.0986 22493.7
 06 11 2015  10 15  -14.5638 17941.1 -13567.9 -37.0982 22493.8
 06 11 2015  10 16  -14.5650 17941.1 -13568.1 -37.0986 22493.9
 06 11 2015  10 17  -14.5653 17941.1 -13568.6 -37.0996 22494.2
 06 11 2015  10 18  -14.5658 17941.3 -13568.4 -37.0988 22494.3
 06 11 2015  10 19  -14.5660 17941.4 -13568.1 -37.0981 22494.2
 06 11 2015  10 20  -14.5661 17941.4 -13568.2 -37.0983 22494.3
 06 11 2015  10 21  -14.5662 17941.4 -13568.1 -37.0982 22494.1
 06 11 2015  10 22  -14.5663 17941.3 -13567.9 -37.0980 22493.9
 06 11 2015  10 23  -14.5666 17941.3 -13568.1 -37.0983 22494.0
 06 11 2015  10 24  -14.5670 17941.4 -13568.0 -37.0980 22494.1
 06 11 2015  10 25  -14.5675 17941.3 -13567.9 -37.0978 22494.0
 06 11 2015  10 26  -14.5670 17941.2 -13568.0 -37.0983 22493.9
 06 11 2015  10 27  -14.5666 17940.8 -13568.0 -37.0989 22493.7
 06 11 2015  10 28  -14.5665 17940.6 -13567.6 -37.0983 22493.2
 06 11 2015  10 29  -14.5666 17940.4 -13568.3 -37.1002 22493.5
 06 11 2015  10 30  -14.5677 17940.4 -13567.9 -37.0991 22493.3
 06 11 2015  10 31  -14.5689 17940.7 -13567.8 -37.0986 22493.4
 06 11 2015  10 32  -14.5698 17941.1 -13568.5 -37.0995 22494.1
 06 11 2015  10 33  -14.5710 17941.3 -13568.2 -37.0984 22494.2
 06 11 2015  10 34  -14.5715 17941.2 -13567.8 -37.0978 22493.9
 06 11 2015  10 35  -14.5717 17941.3 -13567.4 -37.0969 22493.6
 06 11 2015  10 36  -14.5718 17941.3 -13567.7 -37.0974 22493.8
 06 11 2015  10 37  -14.5722 17941.4 -13567.5 -37.0968 22493.8
 06 11 2015  10 38  -14.5720 17941.4 -13567.4 -37.0967 22493.7
 06 11 2015  10 39  -14.5715 17941.6 -13567.8 -37.0974 22494.1
 06 11 2015  10 40  -14.5716 17941.9 -13567.8 -37.0967 22494.3
 06 11 2015  10 41  -14.5717 17942.1 -13567.8 -37.0964 22494.5
 06 11 2015  10 42  -14.5720 17942.8 -13568.1 -37.0960 22495.3
 06 11 2015  10 43  -14.5723 17943.3 -13567.6 -37.0941 22495.4
 06 11 2015  10 44  -14.5721 17943.3 -13567.5 -37.0941 22495.3
 06 11 2015  10 45  -14.5722 17943.1 -13567.4 -37.0942 22495.1
 06 11 2015  10 46  -14.5729 17943.5 -13567.0 -37.0927 22495.1
 06 11 2015  10 47  -14.5742 17943.8 -13567.0 -37.0924 22495.4
 06 11 2015  10 48  -14.5754 17944.1 -13566.8 -37.0913 22495.6
 06 11 2015  10 49  -14.5765 17944.6 -13566.9 -37.0907 22496.0
 06 11 2015  10 50  -14.5770 17944.8 -13566.5 -37.0896 22495.9
 06 11 2015  10 51  -14.5773 17944.9 -13566.2 -37.0889 22495.8
 06 11 2015  10 52  -14.5778 17944.8 -13566.1 -37.0888 22495.7
 06 11 2015  10 53  -14.5782 17944.9 -13566.3 -37.0889 22495.9
 06 11 2015  10 54  -14.5783 17945.3 -13566.0 -37.0879 22496.0
 06 11 2015  10 55  -14.5782 17945.6 -13565.9 -37.0872 22496.1
 06 11 2015  10 56  -14.5782 17945.5 -13565.6 -37.0868 22495.9
 06 11 2015  10 57  -14.5779 17945.6 -13565.3 -37.0859 22495.8
 06 11 2015  10 58  -14.5782 17945.6 -13565.3 -37.0861 22495.8
 06 11 2015  10 59  -14.5782 17945.5 -13564.9 -37.0853 22495.5
 06 11 2015  11 00  -14.5779 17945.4 -13565.5 -37.0867 22495.7
 06 11 2015  11 01  -14.5782 17945.0 -13564.9 -37.0862 22495.1
 06 11 2015  11 02  -14.5788 17944.6 -13565.2 -37.0874 22495.0
 06 11 2015  11 03  -14.5798 17944.4 -13564.3 -37.0857 22494.2
 06 11 2015  11 04  -14.5806 17944.3 -13564.1 -37.0856 22494.1
 06 11 2015  11 05  -14.5813 17944.3 -13564.1 -37.0854 22494.1
 06 11 2015  11 06  -14.5814 17944.4 -13564.3 -37.0858 22494.3
 06 11 2015  11 07  -14.5816 17944.5 -13564.2 -37.0855 22494.3
 06 11 2015  11 08  -14.5817 17944.5 -13563.5 -37.0841 22493.9
 06 11 2015  11 09  -14.5814 17944.8 -13564.0 -37.0846 22494.4
 06 11 2015  11 10  -14.5816 17944.9 -13563.6 -37.0836 22494.3
 06 11 2015  11 11  -14.5807 17944.9 -13563.7 -37.0837 22494.3
 06 11 2015  11 12  -14.5804 17945.0 -13563.9 -37.0841 22494.4
 06 11 2015  11 13  -14.5807 17944.9 -13563.3 -37.0831 22494.1
 06 11 2015  11 14  -14.5812 17944.8 -13562.9 -37.0823 22493.8
 06 11 2015  11 15  -14.5810 17945.2 -13562.9 -37.0817 22494.1
 06 11 2015  11 16  -14.5811 17945.3 -13562.8 -37.0813 22494.0
 06 11 2015  11 17  -14.5815 17944.9 -13562.6 -37.0815 22493.6
 06 11 2015  11 18  -14.5809 17944.9 -13562.7 -37.0817 22493.7
 06 11 2015  11 19  -14.5811 17945.1 -13562.3 -37.0807 22493.7
 06 11 2015  11 20  -14.5816 17945.5 -13562.3 -37.0800 22494.0
 06 11 2015  11 21  -14.5819 17945.7 -13562.2 -37.0795 22494.0
 06 11 2015  11 22  -14.5822 17945.8 -13561.7 -37.0784 22493.8
 06 11 2015  11 23  -14.5820 17945.8 -13561.7 -37.0783 22493.8
 06 11 2015  11 24  -14.5812 17946.0 -13561.7 -37.0781 22494.0
 06 11 2015  11 25  -14.5803 17946.2 -13561.6 -37.0775 22494.1
 06 11 2015  11 26  -14.5796 17946.4 -13561.6 -37.0773 22494.2
 06 11 2015  11 27  -14.5794 17946.5 -13561.4 -37.0766 22494.2
 06 11 2015  11 28  -14.5792 17946.8 -13561.3 -37.0761 22494.4
 06 11 2015  11 29  -14.5789 17946.8 -13561.1 -37.0755 22494.2
 06 11 2015  11 30  -14.5783 17947.0 -13560.8 -37.0747 22494.2
 06 11 2015  11 31  -14.5779 17947.1 -13561.0 -37.0749 22494.4
 06 11 2015  11 32  -14.5774 17947.6 -13560.7 -37.0735 22494.6
 06 11 2015  11 33  -14.5770 17947.9 -13560.3 -37.0724 22494.6
 06 11 2015  11 34  -14.5771 17948.0 -13560.2 -37.0718 22494.7
 06 11 2015  11 35  -14.5775 17948.3 -13559.4 -37.0698 22494.4
 06 11 2015  11 36  -14.5781 17948.8 -13559.0 -37.0684 22494.6
 06 11 2015  11 37  -14.5782 17949.3 -13558.8 -37.0671 22494.8
 06 11 2015  11 38  -14.5785 17949.5 -13558.7 -37.0666 22495.0
 06 11 2015  11 39  -14.5787 17950.2 -13559.0 -37.0661 22495.7
 06 11 2015  11 40  -14.5792 17951.3 -13559.1 -37.0647 22496.6
 06 11 2015  11 41  -14.5791 17953.2 -13558.1 -37.0598 22497.6
 06 11 2015  11 42  -14.5776 17955.0 -13558.2 -37.0570 22499.1
 06 11 2015  11 43  -14.5758 17956.3 -13557.9 -37.0546 22499.9
 06 11 2015  11 44  -14.5745 17956.9 -13557.9 -37.0537 22500.4
 06 11 2015  11 45  -14.5748 17957.1 -13557.1 -37.0518 22500.0
 06 11 2015  11 46  -14.5753 17957.6 -13556.7 -37.0501 22500.2
 06 11 2015  11 47  -14.5752 17958.0 -13556.0 -37.0480 22500.1
 06 11 2015  11 48  -14.5747 17958.4 -13555.1 -37.0456 22499.8
 06 11 2015  11 49  -14.5743 17958.7 -13555.0 -37.0451 22500.1
 06 11 2015  11 50  -14.5736 17958.7 -13554.6 -37.0440 22499.8
 06 11 2015  11 51  -14.5737 17958.4 -13554.3 -37.0441 22499.4
 06 11 2015  11 52  -14.5741 17957.8 -13553.3 -37.0429 22498.4
 06 11 2015  11 53  -14.5746 17956.8 -13553.5 -37.0449 22497.6
 06 11 2015  11 54  -14.5756 17956.0 -13553.1 -37.0452 22496.8
 06 11 2015  11 55  -14.5761 17956.0 -13552.9 -37.0449 22496.7
 06 11 2015  11 56  -14.5763 17956.1 -13552.9 -37.0447 22496.7
 06 11 2015  11 57  -14.5771 17955.8 -13552.3 -37.0439 22496.1
 06 11 2015  11 58  -14.5779 17955.1 -13552.6 -37.0456 22495.8
 06 11 2015  11 59  -14.5793 17954.4 -13552.1 -37.0458 22494.9
 06 11 2015  12 00  -14.5810 17953.7 -13551.8 -37.0460 22494.1
 06 11 2015  12 01  -14.5820 17953.3 -13551.5 -37.0461 22493.6
 06 11 2015  12 02  -14.5826 17953.1 -13551.7 -37.0470 22493.6
 06 11 2015  12 03  -14.5842 17952.8 -13551.0 -37.0459 22493.0
 06 11 2015  12 04  -14.5860 17953.0 -13551.3 -37.0463 22493.3
 06 11 2015  12 05  -14.5877 17952.3 -13551.1 -37.0469 22492.6
 06 11 2015  12 06  -14.5889 17951.7 -13551.3 -37.0481 22492.3
 06 11 2015  12 07  -14.5893 17951.5 -13551.7 -37.0491 22492.3
 06 11 2015  12 08  -14.5895 17951.9 -13550.7 -37.0467 22492.0
 06 11 2015  12 09  -14.5887 17952.5 -13551.0 -37.0464 22492.7
 06 11 2015  12 10  -14.5887 17952.9 -13550.7 -37.0453 22492.8
 06 11 2015  12 11  -14.5884 17953.2 -13550.7 -37.0446 22493.1
 06 11 2015  12 12  -14.5880 17953.4 -13551.0 -37.0450 22493.5
 06 11 2015  12 13  -14.5874 17953.8 -13551.0 -37.0443 22493.7
 06 11 2015  12 14  -14.5875 17953.9 -13550.8 -37.0437 22493.7
 06 11 2015  12 15  -14.5870 17954.3 -13550.7 -37.0429 22494.0
 06 11 2015  12 16  -14.5858 17954.8 -13550.5 -37.0418 22494.2
 06 11 2015  12 17  -14.5842 17955.1 -13549.8 -37.0398 22494.1
 06 11 2015  12 18  -14.5834 17954.5 -13550.0 -37.0412 22493.7
 06 11 2015  12 19  -14.5834 17953.8 -13549.6 -37.0416 22492.9
 06 11 2015  12 20  -14.5837 17953.4 -13549.7 -37.0422 22492.6
 06 11 2015  12 21  -14.5836 17953.6 -13549.4 -37.0415 22492.6
 06 11 2015  12 22  -14.5831 17954.3 -13549.6 -37.0408 22493.3
 06 11 2015  12 23  -14.5822 17955.3 -13549.1 -37.0381 22493.8
 06 11 2015  12 24  -14.5816 17956.1 -13549.1 -37.0370 22494.4
 06 11 2015  12 25  -14.5807 17956.3 -13549.4 -37.0373 22494.8
 06 11 2015  12 26  -14.5806 17956.0 -13548.7 -37.0364 22494.1
 06 11 2015  12 27  -14.5802 17956.2 -13548.8 -37.0363 22494.3
 06 11 2015  12 28  -14.5809 17956.0 -13548.9 -37.0368 22494.3
 06 11 2015  12 29  -14.5817 17956.0 -13548.1 -37.0351 22493.8
 06 11 2015  12 30  -14.5817 17956.3 -13548.1 -37.0346 22494.0
 06 11 2015  12 31  -14.5825 17956.1 -13547.8 -37.0344 22493.6
 06 11 2015  12 32  -14.5829 17956.1 -13547.5 -37.0337 22493.5
 06 11 2015  12 33  -14.5825 17956.2 -13547.4 -37.0334 22493.5
 06 11 2015  12 34  -14.5827 17955.7 -13547.0 -37.0333 22492.8
 06 11 2015  12 35  -14.5829 17955.4 -13547.0 -37.0338 22492.6
 06 11 2015  12 36  -14.5836 17955.5 -13547.2 -37.0341 22492.8
 06 11 2015  12 37  -14.5838 17956.2 -13547.1 -37.0328 22493.3
 06 11 2015  12 38  -14.5836 17957.0 -13547.4 -37.0321 22494.1
 06 11 2015  12 39  -14.5839 17957.6 -13546.6 -37.0295 22494.1
 06 11 2015  12 40  -14.5839 17958.2 -13546.7 -37.0288 22494.6
 06 11 2015  12 41  -14.5830 17958.8 -13546.7 -37.0279 22495.1
 06 11 2015  12 42  -14.5820 17959.7 -13546.9 -37.0268 22496.0
 06 11 2015  12 43  -14.5807 17960.6 -13546.2 -37.0241 22496.3
 06 11 2015  12 44  -14.5797 17961.2 -13545.9 -37.0226 22496.5
 06 11 2015  12 45  -14.5782 17962.0 -13545.8 -37.0212 22497.2
 06 11 2015  12 46  -14.5763 17963.0 -13546.1 -37.0202 22498.1
 06 11 2015  12 47  -14.5743 17963.9 -13546.1 -37.0189 22498.9
 06 11 2015  12 48  -14.5727 17965.0 -13545.6 -37.0163 22499.4
 06 11 2015  12 49  -14.5722 17965.1 -13545.2 -37.0152 22499.2
 06 11 2015  12 50  -14.5720 17965.2 -13544.5 -37.0136 22498.9
 06 11 2015  12 51  -14.5716 17965.5 -13544.6 -37.0133 22499.2
 06 11 2015  12 52  -14.5711 17966.5 -13544.5 -37.0117 22499.9
 06 11 2015  12 53  -14.5713 17967.0 -13543.8 -37.0095 22500.0
 06 11 2015  12 54  -14.5712 17967.5 -13543.6 -37.0082 22500.2
 06 11 2015  12 55  -14.5695 17968.2 -13543.3 -37.0066 22500.6
 06 11 2015  12 56  -14.5677 17969.0 -13543.7 -37.0063 22501.5
 06 11 2015  12 57  -14.5670 17969.4 -13543.1 -37.0043 22501.4
 06 11 2015  12 58  -14.5666 17969.7 -13543.3 -37.0043 22501.8
 06 11 2015  12 59  -14.5663 17970.2 -13543.0 -37.0029 22502.0
 06 11 2015  13 00  -14.5655 17970.9 -13541.9 -36.9996 22501.9
 06 11 2015  13 01  -14.5635 17971.5 -13542.1 -36.9990 22502.5
 06 11 2015  13 02  -14.5612 17971.9 -13542.1 -36.9985 22502.8
 06 11 2015  13 03  -14.5600 17971.9 -13541.5 -36.9973 22502.5
 06 11 2015  13 04  -14.5592 17971.7 -13541.2 -36.9970 22502.2
 06 11 2015  13 05  -14.5588 17971.8 -13541.3 -36.9971 22502.3
 06 11 2015  13 06  -14.5582 17972.0 -13540.7 -36.9955 22502.1
 06 11 2015  13 07  -14.5580 17972.2 -13540.6 -36.9949 22502.1
 06 11 2015  13 08  -14.5573 17972.5 -13541.3 -36.9961 22502.8
 06 11 2015  13 09  -14.5577 17972.5 -13540.7 -36.9948 22502.5
 06 11 2015  13 10  -14.5583 17972.1 -13540.1 -36.9942 22501.8
 06 11 2015  13 11  -14.5579 17972.2 -13540.3 -36.9943 22501.9
 06 11 2015  13 12  -14.5566 17972.7 -13539.6 -36.9923 22501.9
 06 11 2015  13 13  -14.5553 17972.9 -13540.3 -36.9933 22502.5
 06 11 2015  13 14  -14.5546 17973.3 -13540.0 -36.9921 22502.6
 06 11 2015  13 15  -14.5542 17973.6 -13539.2 -36.9900 22502.4
 06 11 2015  13 16  -14.5554 17972.8 -13539.0 -36.9908 22501.7
 06 11 2015  13 17  -14.5570 17972.2 -13539.2 -36.9920 22501.3
 06 11 2015  13 18  -14.5593 17971.7 -13538.6 -36.9917 22500.6
 06 11 2015  13 19  -14.5612 17972.1 -13538.9 -36.9917 22501.1
 06 11 2015  13 20  -14.5616 17973.2 -13539.1 -36.9905 22502.1
 06 11 2015  13 21  -14.5620 17973.9 -13539.3 -36.9897 22502.8
 06 11 2015  13 22  -14.5616 17974.7 -13538.6 -36.9871 22503.0
 06 11 2015  13 23  -14.5602 17975.5 -13538.7 -36.9862 22503.7
 06 11 2015  13 24  -14.5579 17976.8 -13538.2 -36.9830 22504.4
 06 11 2015  13 25  -14.5550 17978.2 -13539.1 -36.9826 22506.1
 06 11 2015  13 26  -14.5517 17979.5 -13538.3 -36.9790 22506.6
 06 11 2015  13 27  -14.5474 17980.8 -13538.5 -36.9775 22507.8
 06 11 2015  13 28  -14.5453 17980.7 -13537.9 -36.9765 22507.3
 06 11 2015  13 29  -14.5437 17980.6 -13537.9 -36.9765 22507.3
 06 11 2015  13 30  -14.5430 17980.2 -13537.5 -36.9765 22506.7
 06 11 2015  13 31  -14.5422 17980.1 -13537.5 -36.9767 22506.6
 06 11 2015  14 21  -14.5568 17972.5 -13536.8 -36.9867 22500.2
 06 11 2015  14 22  -14.5576 17972.3 -13535.9 -36.9853 22499.4
 06 11 2015  14 23  -14.5585 17972.2 -13536.9 -36.9875 22499.9
 06 11 2015  14 24  -14.5580 17972.9 -13536.5 -36.9855 22500.2
 06 11 2015  14 25  -14.5575 17973.5 -13537.2 -36.9862 22501.2
 06 11 2015  14 26  -14.5559 17974.2 -13536.7 -36.9840 22501.4
 06 11 2015  14 27  -14.5539 17974.8 -13536.6 -36.9829 22501.8
 06 11 2015  14 28  -14.5518 17975.2 -13537.1 -36.9834 22502.5
 06 11 2015  14 29  -14.5507 17975.4 -13537.1 -36.9830 22502.6
 06 11 2015  14 30  -14.5500 17975.4 -13537.1 -36.9830 22502.6
 06 11 2015  14 31  -14.5498 17975.2 -13537.0 -36.9831 22502.4
 06 11 2015  14 32  -14.5498 17975.2 -13537.1 -36.9833 22502.5
 06 11 2015  14 33  -14.5491 17975.5 -13537.5 -36.9836 22502.9
 06 11 2015  14 34  -14.5479 17975.9 -13537.8 -36.9836 22503.4
 06 11 2015  14 35  -14.5472 17976.5 -13537.6 -36.9823 22503.8
 06 11 2015  14 36  -14.5466 17976.6 -13537.9 -36.9826 22504.1
 06 11 2015  14 37  -14.5455 17977.4 -13537.2 -36.9802 22504.3
 06 11 2015  14 38  -14.5438 17977.9 -13538.1 -36.9811 22505.2
 06 11 2015  14 39  -14.5408 17979.2 -13538.3 -36.9797 22506.4
 06 11 2015  14 40  -14.5372 17980.4 -13538.5 -36.9781 22507.5
 06 11 2015  14 41  -14.5350 17980.6 -13538.4 -36.9777 22507.6
 06 11 2015  14 42  -14.5336 17980.2 -13538.6 -36.9786 22507.4
 06 11 2015  14 43  -14.5315 17980.3 -13538.6 -36.9784 22507.4
 06 11 2015  14 44  -14.5291 17980.4 -13538.8 -36.9786 22507.6
 06 11 2015  14 45  -14.5264 17981.1 -13539.2 -36.9785 22508.4
 06 11 2015  14 46  -14.5230 17981.9 -13539.2 -36.9774 22509.1
 06 11 2015  14 47  -14.5215 17982.1 -13539.7 -36.9779 22509.5
 06 11 2015  14 48  -14.5198 17982.5 -13540.0 -36.9780 22510.1
 06 11 2015  14 49  -14.5162 17983.5 -13540.2 -36.9770 22510.9
 06 11 2015  14 50  -14.5117 17984.5 -13540.5 -36.9761 22512.0
 06 11 2015  14 51  -14.5085 17985.2 -13540.7 -36.9753 22512.7
 06 11 2015  14 52  -14.5065 17985.4 -13540.8 -36.9751 22512.8
 06 11 2015  14 53  -14.5061 17984.8 -13540.7 -36.9759 22512.2
 06 11 2015  14 54  -14.5072 17984.1 -13540.8 -36.9773 22511.8
 06 11 2015  14 55  -14.5091 17983.1 -13540.6 -36.9784 22510.9
 06 11 2015  14 56  -14.5100 17983.1 -13540.9 -36.9789 22511.1
 06 11 2015  14 57  -14.5111 17983.2 -13541.0 -36.9790 22511.2
 06 11 2015  14 58  -14.5113 17983.5 -13541.3 -36.9792 22511.6
 06 11 2015  14 59  -14.5119 17983.2 -13541.6 -36.9800 22511.6
 06 11 2015  15 00  -14.5127 17982.8 -13541.3 -36.9801 22511.1
 06 11 2015  15 01  -14.5135 17982.2 -13541.2 -36.9808 22510.5
 06 11 2015  15 02  -14.5141 17982.0 -13541.6 -36.9820 22510.6
 06 11 2015  15 03  -14.5152 17981.8 -13542.3 -36.9837 22510.9
 06 11 2015  15 04  -14.5172 17981.4 -13542.1 -36.9839 22510.4
 06 11 2015  15 05  -14.5187 17981.2 -13541.8 -36.9836 22510.1
 06 11 2015  15 06  -14.5196 17980.9 -13542.0 -36.9844 22510.0
 06 11 2015  15 07  -14.5185 17981.4 -13542.6 -36.9851 22510.7
 06 11 2015  15 08  -14.5184 17981.2 -13542.6 -36.9853 22510.6
 06 11 2015  15 09  -14.5193 17980.9 -13542.4 -36.9854 22510.2
 06 11 2015  15 10  -14.5210 17980.2 -13542.8 -36.9874 22509.9
 06 11 2015  15 11  -14.5221 17979.6 -13542.9 -36.9882 22509.5
 06 11 2015  15 12  -14.5229 17979.5 -13542.8 -36.9883 22509.3
 06 11 2015  15 13  -14.5240 17979.1 -13543.0 -36.9892 22509.1
 06 11 2015  15 14  -14.5247 17978.9 -13543.0 -36.9897 22509.0
 06 11 2015  15 15  -14.5256 17978.5 -13543.1 -36.9904 22508.7
 06 11 2015  15 16  -14.5261 17978.2 -13543.0 -36.9907 22508.5
 06 11 2015  15 17  -14.5263 17977.9 -13543.0 -36.9911 22508.1
 06 11 2015  15 18  -14.5269 17977.3 -13542.7 -36.9915 22507.5
 06 11 2015  15 19  -14.5272 17976.9 -13543.7 -36.9940 22507.8
 06 11 2015  15 20  -14.5288 17976.7 -13543.4 -36.9937 22507.5
 06 11 2015  15 21  -14.5283 17977.1 -13544.0 -36.9944 22508.2
 06 11 2015  15 22  -14.5259 17977.7 -13543.8 -36.9930 22508.5
 06 11 2015  15 23  -14.5226 17978.2 -13543.5 -36.9919 22508.7
 06 11 2015  15 24  -14.5202 17977.9 -13543.6 -36.9925 22508.5
 06 11 2015  15 25  -14.5188 17977.4 -13543.5 -36.9928 22508.1
 06 11 2015  15 26  -14.5180 17977.0 -13543.7 -36.9939 22507.9
 06 11 2015  15 27  -14.5169 17976.8 -13543.8 -36.9944 22507.8
 06 11 2015  15 28  -14.5163 17976.6 -13544.2 -36.9955 22507.8
 06 11 2015  15 29  -14.5172 17975.8 -13543.5 -36.9953 22506.8
 06 11 2015  15 30  -14.5180 17975.4 -13544.1 -36.9971 22506.8
 06 11 2015  15 31  -14.5183 17975.3 -13543.8 -36.9966 22506.6
 06 11 2015  15 32  -14.5183 17975.2 -13544.2 -36.9978 22506.8
 06 11 2015  15 33  -14.5175 17975.4 -13544.6 -36.9982 22507.1
 06 11 2015  15 34  -14.5168 17975.4 -13544.4 -36.9977 22507.0
 06 11 2015  15 35  -14.5170 17974.8 -13544.9 -36.9996 22506.8
 06 11 2015  15 36  -14.5168 17975.0 -13544.8 -36.9992 22506.9
 06 11 2015  15 37  -14.5167 17975.0 -13544.5 -36.9987 22506.8
 06 11 2015  15 38  -14.5167 17975.1 -13544.8 -36.9990 22507.0
 06 11 2015  15 39  -14.5174 17974.8 -13544.6 -36.9992 22506.6
 06 11 2015  15 40  -14.5172 17974.7 -13544.6 -36.9993 22506.5
 06 11 2015  15 41  -14.5158 17975.0 -13545.0 -36.9996 22507.0
 06 11 2015  15 42  -14.5143 17974.9 -13545.3 -37.0004 22507.2
 06 11 2015  15 43  -14.5135 17974.5 -13544.7 -36.9999 22506.4
 06 11 2015  15 44  -14.5128 17974.1 -13545.1 -37.0013 22506.4
 06 11 2015  15 45  -14.5127 17973.5 -13545.4 -37.0027 22506.1
 06 11 2015  15 46  -14.5125 17973.2 -13545.3 -37.0030 22505.7
 06 11 2015  15 47  -14.5111 17973.2 -13545.3 -37.0029 22505.8
 06 11 2015  15 48  -14.5096 17973.1 -13545.4 -37.0035 22505.8
 06 11 2015  15 49  -14.5085 17972.7 -13546.0 -37.0052 22505.9
 06 11 2015  15 50  -14.5083 17972.1 -13546.1 -37.0063 22505.4
 06 11 2015  15 51  -14.5087 17971.8 -13545.9 -37.0064 22505.1
 06 11 2015  15 52  -14.5094 17971.1 -13546.5 -37.0087 22504.8
 06 11 2015  15 53  -14.5094 17971.0 -13546.4 -37.0087 22504.7
 06 11 2015  15 54  -14.5086 17970.9 -13546.8 -37.0095 22504.9
 06 11 2015  15 55  -14.5070 17971.4 -13546.8 -37.0088 22505.2
 06 11 2015  15 56  -14.5045 17971.9 -13547.0 -37.0085 22505.8
 06 11 2015  15 57  -14.5005 17972.6 -13547.5 -37.0083 22506.7
 06 11 2015  15 58  -14.4973 17972.9 -13547.4 -37.0078 22506.9
 06 11 2015  15 59  -14.4934 17973.4 -13547.8 -37.0077 22507.5
 06 11 2015  16 00  -14.4895 17973.7 -13547.9 -37.0075 22507.8
 06 11 2015  16 01  -14.4869 17973.8 -13548.0 -37.0077 22507.9
 06 11 2015  16 02  -14.4843 17974.2 -13548.2 -37.0073 22508.3
 06 11 2015  16 03  -14.4816 17974.7 -13548.4 -37.0070 22508.9
 06 11 2015  16 04  -14.4784 17975.3 -13548.6 -37.0065 22509.4
 06 11 2015  16 05  -14.4770 17975.0 -13548.6 -37.0070 22509.2
 06 11 2015  16 06  -14.4759 17975.1 -13548.6 -37.0069 22509.3
 06 11 2015  16 07  -14.4757 17975.1 -13548.7 -37.0071 22509.3
 06 11 2015  16 08  -14.4754 17975.0 -13548.6 -37.0069 22509.2
 06 11 2015  16 09  -14.4761 17974.7 -13548.7 -37.0076 22509.0
 06 11 2015  16 10  -14.4752 17974.6 -13548.3 -37.0070 22508.7
 06 11 2015  16 11  -14.4751 17973.8 -13548.7 -37.0089 22508.3
 06 11 2015  16 12  -14.4757 17973.3 -13548.6 -37.0097 22507.9
 06 11 2015  16 13  -14.4763 17972.8 -13548.1 -37.0094 22507.1
 06 11 2015  16 14  -14.4762 17972.7 -13548.7 -37.0107 22507.4
 06 11 2015  16 15  -14.4757 17973.1 -13548.7 -37.0101 22507.8
 06 11 2015  16 16  -14.4749 17973.7 -13548.6 -37.0090 22508.2
 06 11 2015  16 17  -14.4744 17973.8 -13548.7 -37.0091 22508.4
 06 11 2015  16 18  -14.4741 17973.9 -13548.6 -37.0085 22508.4
 06 11 2015  16 19  -14.4731 17974.0 -13548.6 -37.0085 22508.5
 06 11 2015  16 20  -14.4708 17974.4 -13548.9 -37.0084 22508.9
 06 11 2015  16 21  -14.4675 17974.6 -13548.8 -37.0079 22509.0
 06 11 2015  16 22  -14.4648 17974.6 -13548.4 -37.0071 22508.8
 06 11 2015  16 23  -14.4615 17975.0 -13548.9 -37.0077 22509.4
 06 11 2015  16 24  -14.4588 17975.1 -13549.4 -37.0084 22509.8
 06 11 2015  16 25  -14.4581 17974.7 -13549.3 -37.0089 22509.4
 06 11 2015  16 26  -14.4589 17974.2 -13549.4 -37.0099 22509.0
 06 11 2015  16 27  -14.4604 17973.9 -13548.8 -37.0092 22508.5
 06 11 2015  16 28  -14.4603 17974.0 -13549.0 -37.0093 22508.6
 06 11 2015  16 29  -14.4604 17973.9 -13549.2 -37.0099 22508.7
 06 11 2015  16 30  -14.4613 17973.7 -13548.8 -37.0093 22508.3
 06 11 2015  16 31  -14.4618 17973.4 -13548.9 -37.0101 22508.1
 06 11 2015  16 32  -14.4632 17972.9 -13548.6 -37.0102 22507.5
 06 11 2015  16 33  -14.4643 17972.5 -13549.3 -37.0122 22507.7
 06 11 2015  16 34  -14.4649 17972.5 -13549.0 -37.0116 22507.4
 06 11 2015  16 35  -14.4635 17972.8 -13548.8 -37.0107 22507.5
 06 11 2015  16 36  -14.4615 17973.3 -13549.1 -37.0106 22508.1
 06 11 2015  16 37  -14.4602 17973.0 -13549.1 -37.0110 22508.0
 06 11 2015  16 38  -14.4595 17972.9 -13548.9 -37.0108 22507.7
 06 11 2015  16 39  -14.4587 17972.4 -13549.0 -37.0118 22507.4
 06 11 2015  16 40  -14.4580 17972.0 -13549.2 -37.0127 22507.2
 06 11 2015  16 41  -14.4575 17971.5 -13548.8 -37.0126 22506.6
 06 11 2015  16 42  -14.4576 17971.3 -13549.1 -37.0136 22506.6
 06 11 2015  16 43  -14.4577 17971.2 -13548.8 -37.0131 22506.3
 06 11 2015  16 44  -14.4569 17970.9 -13548.9 -37.0139 22506.2
 06 11 2015  16 45  -14.4552 17970.6 -13549.7 -37.0159 22506.3
 06 11 2015  16 46  -14.4531 17970.6 -13549.0 -37.0146 22505.9
 06 11 2015  16 47  -14.4509 17970.5 -13549.1 -37.0150 22505.9
 06 11 2015  16 48  -14.4493 17970.5 -13549.8 -37.0164 22506.3
 06 11 2015  16 49  -14.4490 17970.1 -13549.8 -37.0169 22506.0
 06 11 2015  16 50  -14.4485 17969.8 -13549.8 -37.0173 22505.8
 06 11 2015  16 51  -14.4463 17970.1 -13549.4 -37.0161 22505.8
 06 11 2015  16 52  -14.4429 17970.6 -13549.6 -37.0157 22506.3
 06 11 2015  16 53  -14.4403 17970.6 -13550.6 -37.0177 22506.9
 06 11 2015  16 54  -14.4372 17970.7 -13550.7 -37.0179 22507.0
 06 11 2015  16 55  -14.4355 17970.3 -13550.7 -37.0184 22506.7
 06 11 2015  16 56  -14.4342 17969.8 -13550.2 -37.0181 22506.0
 06 11 2015  16 57  -14.4339 17968.5 -13550.8 -37.0214 22505.4
 06 11 2015  16 58  -14.4335 17967.2 -13549.9 -37.0216 22503.8
 06 11 2015  16 59  -14.4336 17966.1 -13550.1 -37.0236 22503.0
 06 11 2015  17 00  -14.4338 17965.0 -13550.2 -37.0255 22502.2
 06 11 2015  17 01  -14.4325 17964.5 -13551.1 -37.0281 22502.4
 06 11 2015  17 02  -14.4314 17963.8 -13550.4 -37.0277 22501.4
 06 11 2015  17 03  -14.4335 17962.5 -13550.3 -37.0295 22500.3
 06 11 2015  17 04  -14.4384 17960.8 -13550.1 -37.0318 22498.8
 06 11 2015  17 05  -14.4430 17959.4 -13550.2 -37.0342 22497.8
 06 11 2015  17 06  -14.4474 17958.2 -13550.7 -37.0368 22497.1
 06 11 2015  17 07  -14.4495 17957.6 -13551.0 -37.0384 22496.8
 06 11 2015  17 08  -14.4510 17957.1 -13550.8 -37.0389 22496.3
 06 11 2015  17 09  -14.4528 17956.6 -13550.8 -37.0396 22495.8
 06 11 2015  17 10  -14.4547 17955.8 -13551.3 -37.0418 22495.5
 06 11 2015  17 11  -14.4569 17955.2 -13550.7 -37.0417 22494.6
 06 11 2015  17 12  -14.4584 17955.0 -13551.3 -37.0431 22494.9
 06 11 2015  17 13  -14.4587 17955.1 -13551.6 -37.0436 22495.2
 06 11 2015  17 14  -14.4588 17955.0 -13551.5 -37.0436 22495.0
 06 11 2015  17 15  -14.4582 17955.0 -13551.8 -37.0441 22495.2
 06 11 2015  17 16  -14.4582 17954.9 -13552.0 -37.0447 22495.2
 06 11 2015  17 17  -14.4578 17955.1 -13551.8 -37.0440 22495.3
 06 11 2015  17 18  -14.4575 17954.9 -13551.9 -37.0445 22495.2
 06 11 2015  17 19  -14.4566 17954.8 -13552.6 -37.0461 22495.5
 06 11 2015  17 20  -14.4562 17954.3 -13552.3 -37.0462 22494.9
 06 11 2015  17 21  -14.4566 17954.1 -13552.3 -37.0464 22494.8
 06 11 2015  17 22  -14.4571 17954.0 -13552.0 -37.0461 22494.5
 06 11 2015  17 23  -14.4567 17954.0 -13552.6 -37.0474 22494.8
 06 11 2015  17 24  -14.4555 17953.5 -13552.2 -37.0471 22494.2
 06 11 2015  17 25  -14.4554 17952.7 -13552.2 -37.0485 22493.6
 06 11 2015  17 26  -14.4564 17952.1 -13552.9 -37.0508 22493.6
 06 11 2015  17 27  -14.4570 17951.3 -13552.5 -37.0514 22492.7
 06 11 2015  17 28  -14.4576 17950.7 -13553.1 -37.0534 22492.5
 06 11 2015  17 29  -14.4586 17950.1 -13552.7 -37.0535 22491.9
 06 11 2015  17 30  -14.4596 17949.5 -13553.2 -37.0554 22491.6
 06 11 2015  17 31  -14.4589 17949.3 -13553.3 -37.0559 22491.5
 06 11 2015  17 32  -14.4584 17949.0 -13553.0 -37.0559 22491.1
 06 11 2015  17 33  -14.4580 17948.8 -13553.3 -37.0568 22491.1
 06 11 2015  17 34  -14.4578 17948.3 -13554.1 -37.0590 22491.2
 06 11 2015  17 35  -14.4591 17947.5 -13553.9 -37.0599 22490.4
 06 11 2015  17 36  -14.4617 17946.4 -13553.2 -37.0602 22489.2
 06 11 2015  17 37  -14.4629 17945.7 -13553.6 -37.0620 22488.9
 06 11 2015  17 38  -14.4629 17945.3 -13554.1 -37.0638 22488.8
 06 11 2015  17 39  -14.4636 17944.9 -13553.4 -37.0630 22488.1
 06 11 2015  17 40  -14.4634 17944.8 -13554.2 -37.0647 22488.4
 06 11 2015  17 41  -14.4630 17944.4 -13554.6 -37.0659 22488.4
 06 11 2015  17 42  -14.4640 17943.7 -13554.3 -37.0667 22487.7
 06 11 2015  17 43  -14.4647 17943.3 -13554.2 -37.0669 22487.3
 06 11 2015  17 44  -14.4645 17943.0 -13554.8 -37.0687 22487.5
 06 11 2015  17 45  -14.4659 17942.5 -13554.4 -37.0686 22486.7
 06 11 2015  17 46  -14.4666 17942.1 -13554.9 -37.0702 22486.8
 06 11 2015  17 47  -14.4664 17941.9 -13555.2 -37.0712 22486.7
 06 11 2015  17 48  -14.4671 17941.7 -13554.7 -37.0704 22486.3
 06 11 2015  17 49  -14.4662 17941.9 -13555.4 -37.0715 22486.9
 06 11 2015  17 50  -14.4653 17942.1 -13555.5 -37.0715 22487.1
 06 11 2015  17 51  -14.4651 17942.2 -13555.3 -37.0709 22487.1
 06 11 2015  17 52  -14.4655 17941.8 -13555.3 -37.0714 22486.8
 06 11 2015  17 53  -14.4655 17941.9 -13555.4 -37.0716 22486.9
 06 11 2015  17 54  -14.4658 17942.0 -13555.5 -37.0715 22487.0
 06 11 2015  17 55  -14.4652 17942.4 -13555.4 -37.0708 22487.4
 06 11 2015  17 56  -14.4643 17942.7 -13555.5 -37.0705 22487.6
 06 11 2015  17 57  -14.4642 17942.8 -13555.6 -37.0706 22487.8
 06 11 2015  17 58  -14.4640 17943.1 -13555.7 -37.0703 22488.0
 06 11 2015  17 59  -14.4634 17943.4 -13555.7 -37.0699 22488.3
 06 11 2015  18 00  -14.4633 17943.7 -13555.8 -37.0696 22488.5
 06 11 2015  18 01  -14.4630 17943.9 -13555.8 -37.0694 22488.7
 06 11 2015  18 02  -14.4626 17943.8 -13556.1 -37.0700 22488.8
 06 11 2015  18 03  -14.4635 17943.5 -13556.1 -37.0705 22488.5
 06 11 2015  18 04  -14.4640 17943.6 -13556.0 -37.0702 22488.6
 06 11 2015  18 05  -14.4645 17943.7 -13555.6 -37.0693 22488.4
 06 11 2015  18 06  -14.4656 17943.4 -13555.6 -37.0698 22488.2
 06 11 2015  18 07  -14.4661 17943.4 -13556.1 -37.0707 22488.5
 06 11 2015  18 08  -14.4669 17943.2 -13555.9 -37.0706 22488.2
 06 11 2015  18 09  -14.4677 17943.1 -13556.0 -37.0709 22488.2
 06 11 2015  18 10  -14.4684 17943.2 -13556.0 -37.0707 22488.3
 06 11 2015  18 11  -14.4684 17943.1 -13556.1 -37.0711 22488.2
 06 11 2015  18 12  -14.4692 17943.1 -13556.1 -37.0712 22488.3
 06 11 2015  18 13  -14.4708 17943.1 -13556.1 -37.0712 22488.3
 06 11 2015  18 14  -14.4711 17943.3 -13556.3 -37.0711 22488.6
 06 11 2015  18 15  -14.4707 17943.6 -13556.5 -37.0711 22488.9
 06 11 2015  18 16  -14.4698 17944.0 -13556.4 -37.0704 22489.2
 06 11 2015  18 17  -14.4684 17944.7 -13556.7 -37.0699 22490.0
 06 11 2015  18 18  -14.4703 17945.0 -13556.7 -37.0696 22490.2
 06 11 2015  18 19  -14.4658 17961.4 -13559.8 -37.0506 22505.2
 06 11 2015  18 20  -14.4396 17968.9 -13560.3 -37.0401 22511.4
 06 11 2015  18 21  -14.4161 17981.3 -13561.7 -37.0239 22522.2
 06 11 2015  18 22  -14.4023 17984.0 -13560.5 -37.0173 22523.6
 06 11 2015  18 23  -14.3968 17979.3 -13558.2 -37.0199 22518.4
 06 11 2015  18 24  -14.4231 17963.1 -13553.8 -37.0357 22502.9
 06 11 2015  18 25  -14.4453 17957.2 -13552.6 -37.0423 22497.4
 06 11 2015  18 26  -14.4523 17954.6 -13552.7 -37.0467 22495.4
 06 11 2015  18 27  -14.4514 17954.4 -13553.4 -37.0483 22495.7
 06 11 2015  18 28  -14.4538 17954.2 -13554.2 -37.0502 22496.0
 06 11 2015  18 29  -14.4551 17955.9 -13555.1 -37.0495 22497.9
 06 11 2015  18 30  -14.4524 17957.4 -13555.7 -37.0483 22499.4
 06 11 2015  18 31  -14.4522 17957.8 -13555.6 -37.0475 22499.7
 06 11 2015  18 32  -14.4448 17960.3 -13556.2 -37.0449 22502.0
 06 11 2015  18 33  -14.4350 17961.3 -13556.5 -37.0440 22503.0
 06 11 2015  18 34  -14.4294 17961.5 -13556.7 -37.0441 22503.3
 06 11 2015  18 35  -14.4286 17961.9 -13556.9 -37.0440 22503.7
 06 11 2015  18 36  -14.4225 17963.5 -13557.6 -37.0428 22505.5
 06 11 2015  18 37  -14.4155 17964.9 -13557.6 -37.0406 22506.6
 06 11 2015  18 38  -14.4119 17965.1 -13557.2 -37.0396 22506.5
 06 11 2015  18 39  -14.4115 17965.3 -13557.4 -37.0397 22506.8
 06 11 2015  18 40  -14.4114 17967.4 -13558.2 -37.0382 22509.0
 06 11 2015  18 41  -14.4057 17969.3 -13557.6 -37.0339 22510.1
 06 11 2015  18 42  -14.4033 17970.1 -13557.6 -37.0328 22510.7
 06 11 2015  18 43  -14.4025 17969.8 -13557.5 -37.0329 22510.5
 06 11 2015  18 44  -14.4054 17967.2 -13557.1 -37.0361 22508.1
 06 11 2015  18 45  -14.4145 17958.2 -13554.6 -37.0450 22499.4
 06 11 2015  18 46  -14.4330 17950.7 -13553.9 -37.0550 22493.0
 06 11 2015  18 47  -14.4533 17945.2 -13553.1 -37.0619 22488.2
 06 11 2015  18 48  -14.4604 17944.7 -13553.3 -37.0630 22487.9
 06 11 2015  18 49  -14.4649 17945.0 -13554.6 -37.0652 22488.8
 06 11 2015  18 50  -14.4683 17945.1 -13554.9 -37.0655 22489.1
 06 11 2015  18 51  -14.4718 17945.4 -13555.2 -37.0658 22489.5
 06 11 2015  18 52  -14.4755 17946.0 -13555.0 -37.0644 22489.9
 06 11 2015  18 53  -14.4772 17946.3 -13555.4 -37.0649 22490.4
 06 11 2015  18 54  -14.4759 17947.2 -13555.3 -37.0631 22491.1
 06 11 2015  18 55  -14.4750 17947.7 -13555.0 -37.0619 22491.3
 06 11 2015  18 56  -14.4721 17948.4 -13555.2 -37.0612 22491.9
 06 11 2015  18 57  -14.4698 17949.6 -13555.5 -37.0598 22493.1
 06 11 2015  18 58  -14.4668 17949.8 -13555.5 -37.0595 22493.3
 06 11 2015  18 59  -14.4663 17949.4 -13555.3 -37.0598 22492.8
 06 11 2015  19 00  -14.4650 17950.0 -13555.4 -37.0593 22493.3
 06 11 2015  19 01  -14.4624 17950.1 -13555.4 -37.0589 22493.4
 06 11 2015  19 02  -14.4607 17951.4 -13556.1 -37.0582 22494.9
 06 11 2015  19 03  -14.4569 17952.2 -13556.6 -37.0582 22495.8
 06 11 2015  19 04  -14.4527 17955.8 -13557.9 -37.0552 22499.5
 06 11 2015  19 05  -14.4449 17959.7 -13558.8 -37.0512 22503.1
 06 11 2015  19 06  -14.4366 17959.5 -13558.9 -37.0516 22503.1
 06 11 2015  19 07  -14.4378 17953.9 -13557.7 -37.0579 22497.8
 06 11 2015  19 08  -14.4527 17949.2 -13556.9 -37.0634 22493.7
 06 11 2015  19 09  -14.4571 17957.8 -13558.3 -37.0531 22501.3
 06 11 2015  19 10  -14.4508 17954.4 -13557.1 -37.0558 22497.9
 06 11 2015  19 11  -14.4612 17950.2 -13555.5 -37.0591 22493.6
 06 11 2015  19 12  -14.4660 17947.8 -13555.2 -37.0622 22491.5
 06 11 2015  19 13  -14.4707 17947.5 -13554.9 -37.0619 22491.0
 06 11 2015  19 14  -14.4736 17947.5 -13556.0 -37.0643 22491.7
 06 11 2015  19 15  -14.4773 17947.6 -13555.6 -37.0632 22491.6
 06 11 2015  19 16  -14.4792 17947.9 -13555.2 -37.0619 22491.5
 06 11 2015  19 17  -14.4799 17948.5 -13555.6 -37.0618 22492.3
 06 11 2015  19 18  -14.4799 17948.3 -13555.1 -37.0611 22491.8
 06 11 2015  19 19  -14.4789 17949.0 -13555.8 -37.0614 22492.8
 06 11 2015  19 20  -14.4773 17949.3 -13555.7 -37.0608 22493.0
 06 11 2015  19 21  -14.4766 17949.9 -13555.4 -37.0593 22493.3
 06 11 2015  19 22  -14.4748 17950.4 -13555.7 -37.0591 22493.8
 06 11 2015  19 23  -14.4752 17950.7 -13555.7 -37.0586 22494.0
 06 11 2015  19 24  -14.4733 17951.6 -13555.6 -37.0570 22494.8
 06 11 2015  19 25  -14.4729 17951.4 -13555.1 -37.0562 22494.3
 06 11 2015  19 26  -14.4720 17949.9 -13555.3 -37.0591 22493.2
 06 11 2015  19 27  -14.4755 17949.0 -13554.5 -37.0589 22492.0
 06 11 2015  19 28  -14.4768 17949.3 -13554.8 -37.0589 22492.4
 06 11 2015  19 29  -14.4762 17948.5 -13555.1 -37.0608 22492.0
 06 11 2015  19 30  -14.4784 17948.2 -13555.4 -37.0618 22491.9
 06 11 2015  19 31  -14.4793 17948.4 -13555.1 -37.0610 22491.9
 06 11 2015  19 32  -14.4808 17947.7 -13555.2 -37.0623 22491.4
 06 11 2015  19 33  -14.4813 17947.9 -13555.3 -37.0621 22491.6
 06 11 2015  19 34  -14.4815 17947.3 -13555.2 -37.0629 22491.1
 06 11 2015  19 35  -14.4842 17946.3 -13555.0 -37.0640 22490.2
 06 11 2015  19 36  -14.4864 17945.6 -13554.9 -37.0647 22489.6
 06 11 2015  19 37  -14.4882 17945.5 -13554.9 -37.0650 22489.5
 06 11 2015  19 38  -14.4868 17945.6 -13555.2 -37.0654 22489.7
 06 11 2015  19 39  -14.4852 17945.7 -13555.3 -37.0655 22489.9
 06 11 2015  19 40  -14.4831 17947.1 -13555.5 -37.0637 22491.1
 06 11 2015  19 41  -14.4828 17946.9 -13556.1 -37.0653 22491.3
 06 11 2015  19 42  -14.4836 17947.0 -13555.6 -37.0643 22491.1
 06 11 2015  19 43  -14.4819 17947.7 -13555.6 -37.0631 22491.6
 06 11 2015  19 44  -14.4830 17949.0 -13555.9 -37.0617 22492.9
 06 11 2015  19 45  -14.4828 17949.5 -13555.9 -37.0609 22493.3
 06 11 2015  19 46  -14.4841 17950.0 -13556.1 -37.0605 22493.8
 06 11 2015  19 47  -14.4845 17952.9 -13555.9 -37.0558 22496.0
 06 11 2015  19 48  -14.4768 17953.6 -13555.9 -37.0545 22496.5
 06 11 2015  19 49  -14.4719 17957.2 -13556.1 -37.0495 22499.6
 06 11 2015  19 50  -14.4664 17959.3 -13556.8 -37.0476 22501.6
 06 11 2015  19 51  -14.4621 17959.9 -13556.8 -37.0467 22502.1
 06 11 2015  19 52  -14.4555 17959.2 -13556.3 -37.0469 22501.2
 06 11 2015  19 53  -14.4559 17954.7 -13555.3 -37.0517 22497.1
 06 11 2015  19 54  -14.4574 17954.3 -13555.3 -37.0524 22496.7
 06 11 2015  19 55  -14.4549 17953.2 -13555.7 -37.0547 22496.1
 06 11 2015  19 56  -14.4524 17954.0 -13556.4 -37.0550 22497.2
 06 11 2015  19 57  -14.4470 17959.4 -13558.1 -37.0502 22502.5
 06 11 2015  19 58  -14.4349 17962.0 -13558.8 -37.0477 22505.0
 06 11 2015  19 59  -14.4275 17965.6 -13559.6 -37.0438 22508.4
 06 11 2015  20 00  -14.4219 17964.3 -13559.1 -37.0446 22507.0
 06 11 2015  20 01  -14.4187 17963.2 -13558.8 -37.0458 22506.0
 06 11 2015  20 02  -14.4184 17960.0 -13558.5 -37.0500 22503.2
 06 11 2015  20 03  -14.4191 17957.8 -13558.5 -37.0536 22501.5
 06 11 2015  20 04  -14.4288 17950.0 -13557.5 -37.0635 22494.6
 06 11 2015  20 05  -14.4369 17947.1 -13557.8 -37.0684 22492.5
 06 11 2015  20 06  -14.4500 17943.3 -13557.8 -37.0742 22489.5
 06 11 2015  20 07  -14.4514 17943.1 -13558.5 -37.0760 22489.7
 06 11 2015  20 08  -14.4518 17941.7 -13559.2 -37.0796 22489.0
 06 11 2015  20 09  -14.4531 17942.9 -13560.1 -37.0796 22490.5
 06 11 2015  20 10  -14.4420 17946.4 -13561.4 -37.0769 22494.1
 06 11 2015  20 11  -14.4383 17947.1 -13561.6 -37.0761 22494.8
 06 11 2015  20 12  -14.4360 17945.5 -13561.8 -37.0791 22493.6
 06 11 2015  20 13  -14.4389 17942.9 -13561.3 -37.0819 22491.3
 06 11 2015  20 14  -14.4434 17938.6 -13560.4 -37.0866 22487.3
 06 11 2015  20 15  -14.4478 17936.3 -13560.7 -37.0910 22485.6
 06 11 2015  20 16  -14.4560 17932.3 -13559.9 -37.0955 22482.0
 06 11 2015  20 17  -14.4608 17929.7 -13560.3 -37.1004 22480.1
 06 11 2015  20 18  -14.4639 17929.2 -13560.7 -37.1019 22480.0
 06 11 2015  20 19  -14.4625 17928.6 -13561.0 -37.1033 22479.6
 06 11 2015  20 20  -14.4589 17928.5 -13561.3 -37.1041 22479.7
 06 11 2015  20 21  -14.4578 17928.6 -13561.7 -37.1049 22480.1
 06 11 2015  20 22  -14.4582 17927.9 -13561.6 -37.1058 22479.5
 06 11 2015  20 23  -14.4602 17927.0 -13562.2 -37.1084 22479.1
 06 11 2015  20 24  -14.4620 17925.4 -13562.0 -37.1102 22477.7
 06 11 2015  20 25  -14.4638 17924.8 -13562.1 -37.1114 22477.3
 06 11 2015  20 26  -14.4654 17924.1 -13561.9 -37.1122 22476.7
 06 11 2015  20 27  -14.4663 17923.5 -13562.4 -37.1141 22476.5
 06 11 2015  20 28  -14.4671 17923.2 -13562.3 -37.1143 22476.2
 06 11 2015  20 29  -14.4698 17922.2 -13561.9 -37.1151 22475.0
 06 11 2015  20 30  -14.4713 17921.4 -13562.5 -37.1175 22474.9
 06 11 2015  20 31  -14.4721 17921.0 -13562.3 -37.1177 22474.3
 06 11 2015  20 32  -14.4736 17920.9 -13562.8 -37.1190 22474.6
 06 11 2015  20 33  -14.4734 17921.0 -13562.8 -37.1189 22474.7
 06 11 2015  20 34  -14.4729 17921.1 -13562.9 -37.1187 22474.8
 06 11 2015  20 35  -14.4733 17921.3 -13562.5 -37.1175 22474.8
 06 11 2015  20 36  -14.4731 17921.4 -13562.5 -37.1174 22474.8
 06 11 2015  20 37  -14.4734 17921.9 -13563.1 -37.1180 22475.6
 06 11 2015  20 38  -14.4736 17922.3 -13562.7 -37.1164 22475.6
 06 11 2015  20 39  -14.4745 17922.6 -13562.8 -37.1163 22476.0
 06 11 2015  20 40  -14.4751 17923.0 -13562.3 -37.1147 22476.0
 06 11 2015  20 41  -14.4762 17923.0 -13562.0 -37.1142 22475.8
 06 11 2015  20 42  -14.4773 17922.5 -13562.2 -37.1151 22475.5
 06 11 2015  20 43  -14.4782 17922.5 -13562.3 -37.1154 22475.6
 06 11 2015  20 44  -14.4778 17923.5 -13561.9 -37.1132 22476.2
 06 11 2015  20 45  -14.4770 17923.7 -13562.2 -37.1134 22476.4
 06 11 2015  20 46  -14.4765 17924.8 -13562.6 -37.1125 22477.6
 06 11 2015  20 47  -14.4773 17924.6 -13562.4 -37.1124 22477.3
 06 11 2015  20 48  -14.4774 17925.6 -13561.8 -37.1095 22477.8
 06 11 2015  20 49  -14.4765 17927.2 -13562.4 -37.1084 22479.4
 06 11 2015  20 50  -14.4738 17928.8 -13562.0 -37.1052 22480.4
 06 11 2015  20 51  -14.4746 17928.6 -13562.1 -37.1057 22480.4
 06 11 2015  20 52  -14.4759 17930.6 -13562.5 -37.1034 22482.1
 06 11 2015  20 53  -14.4772 17930.0 -13561.9 -37.1030 22481.4
 06 11 2015  20 54  -14.4784 17931.1 -13561.3 -37.1002 22481.8
 06 11 2015  20 55  -14.4786 17931.5 -13561.1 -37.0992 22482.1
 06 11 2015  20 56  -14.4777 17932.6 -13561.6 -37.0985 22483.2
 06 11 2015  20 57  -14.4768 17931.5 -13561.1 -37.0991 22482.1
 06 11 2015  20 58  -14.4776 17931.8 -13560.5 -37.0973 22481.9
 06 11 2015  20 59  -14.4792 17930.7 -13560.3 -37.0988 22480.9
 06 11 2015  21 00  -14.4799 17930.5 -13560.2 -37.0988 22480.7
 06 11 2015  21 01  -14.4794 17930.8 -13560.2 -37.0983 22480.9
 06 11 2015  21 02  -14.4781 17931.0 -13560.2 -37.0981 22481.1
 06 11 2015  21 03  -14.4777 17931.3 -13560.7 -37.0987 22481.6
 06 11 2015  21 04  -14.4766 17931.5 -13560.5 -37.0980 22481.6
 06 11 2015  21 05  -14.4758 17931.4 -13560.4 -37.0978 22481.5
 06 11 2015  21 06  -14.4754 17931.4 -13560.6 -37.0981 22481.7
 06 11 2015  21 07  -14.4749 17931.1 -13560.8 -37.0991 22481.5
 06 11 2015  21 08  -14.4744 17930.8 -13560.1 -37.0981 22480.8
 06 11 2015  21 09  -14.4742 17930.4 -13560.7 -37.1000 22480.9
 06 11 2015  21 10  -14.4734 17930.5 -13560.3 -37.0989 22480.8
 06 11 2015  21 11  -14.4719 17931.1 -13560.7 -37.0988 22481.5
 06 11 2015  21 12  -14.4705 17930.8 -13561.0 -37.1000 22481.4
 06 11 2015  21 13  -14.4696 17930.8 -13560.9 -37.0998 22481.4
 06 11 2015  21 14  -14.4692 17930.6 -13560.6 -37.0994 22481.0
 06 11 2015  21 15  -14.4689 17930.4 -13560.7 -37.1000 22481.0
 06 11 2015  21 16  -14.4688 17930.2 -13560.1 -37.0990 22480.4
 06 11 2015  21 17  -14.4685 17929.8 -13560.5 -37.1006 22480.3
 06 11 2015  21 18  -14.4688 17929.3 -13560.2 -37.1007 22479.8
 06 11 2015  21 19  -14.4696 17929.0 -13560.1 -37.1010 22479.5
 06 11 2015  21 20  -14.4695 17928.5 -13560.8 -37.1032 22479.5
 06 11 2015  21 21  -14.4689 17928.4 -13560.7 -37.1030 22479.4
 06 11 2015  21 22  -14.4689 17928.0 -13560.9 -37.1041 22479.1
 06 11 2015  21 23  -14.4687 17927.5 -13560.4 -37.1038 22478.5
 06 11 2015  21 24  -14.4681 17927.7 -13560.6 -37.1039 22478.7
 06 11 2015  21 25  -14.4666 17927.8 -13560.4 -37.1034 22478.6
 06 11 2015  21 26  -14.4654 17928.2 -13560.3 -37.1027 22478.9
 06 11 2015  21 27  -14.4638 17928.7 -13560.8 -37.1027 22479.6
 06 11 2015  21 28  -14.4617 17929.3 -13561.6 -37.1034 22480.6
 06 11 2015  21 29  -14.4600 17929.5 -13561.3 -37.1026 22480.5
 06 11 2015  21 30  -14.4581 17929.8 -13561.1 -37.1017 22480.7
 06 11 2015  21 31  -14.4569 17929.9 -13562.0 -37.1035 22481.3
 06 11 2015  21 32  -14.4556 17929.5 -13561.9 -37.1038 22480.9
 06 11 2015  21 33  -14.4542 17929.5 -13561.8 -37.1036 22480.8
 06 11 2015  21 34  -14.4532 17929.3 -13561.7 -37.1037 22480.6
 06 11 2015  21 35  -14.4528 17929.0 -13561.9 -37.1045 22480.5
 06 11 2015  21 36  -14.4521 17928.5 -13561.9 -37.1052 22480.1
 06 11 2015  21 37  -14.4517 17928.4 -13562.1 -37.1059 22480.2
 06 11 2015  21 38  -14.4532 17926.6 -13561.9 -37.1083 22478.7
 06 11 2015  21 39  -14.4542 17926.6 -13562.3 -37.1091 22478.8
 06 11 2015  21 40  -14.4551 17925.9 -13562.3 -37.1102 22478.3
 06 11 2015  21 41  -14.4586 17924.6 -13562.4 -37.1123 22477.3
 06 11 2015  21 42  -14.4621 17923.7 -13562.6 -37.1143 22476.7
 06 11 2015  21 43  -14.4653 17923.3 -13563.4 -37.1164 22476.9
 06 11 2015  21 44  -14.4685 17922.6 -13563.2 -37.1170 22476.2
 06 11 2015  21 45  -14.4716 17922.5 -13563.4 -37.1176 22476.3
 06 11 2015  21 46  -14.4744 17921.8 -13563.3 -37.1185 22475.6
 06 11 2015  21 47  -14.4757 17921.6 -13563.3 -37.1189 22475.5
 06 11 2015  21 48  -14.4774 17921.0 -13563.7 -37.1206 22475.3
 06 11 2015  21 49  -14.4797 17919.8 -13563.9 -37.1228 22474.4
 06 11 2015  21 50  -14.4799 17919.8 -13564.1 -37.1233 22474.6
 06 11 2015  21 51  -14.4793 17920.2 -13564.3 -37.1230 22474.9
 06 11 2015  21 52  -14.4788 17919.8 -13564.3 -37.1236 22474.7
 06 11 2015  21 53  -14.4783 17918.4 -13563.8 -37.1248 22473.2
 06 11 2015  21 54  -14.4767 17918.0 -13563.7 -37.1252 22472.8
 06 11 2015  21 55  -14.4740 17917.7 -13564.3 -37.1270 22473.0
 06 11 2015  21 56  -14.4724 17916.5 -13563.9 -37.1280 22471.8
 06 11 2015  21 57  -14.4696 17916.5 -13564.6 -37.1294 22472.2
 06 11 2015  21 58  -14.4681 17916.5 -13565.1 -37.1302 22472.5
 06 11 2015  21 59  -14.4661 17916.4 -13564.3 -37.1289 22471.9
 06 11 2015  22 00  -14.4644 17916.5 -13565.0 -37.1301 22472.4
 06 11 2015  22 01  -14.4620 17916.5 -13564.8 -37.1296 22472.3
 06 11 2015  22 02  -14.4618 17915.0 -13564.5 -37.1314 22471.0
 06 11 2015  22 03  -14.4606 17914.2 -13564.4 -37.1324 22470.2
 06 11 2015  22 04  -14.4601 17912.9 -13564.4 -37.1344 22469.2
 06 11 2015  22 05  -14.4575 17912.4 -13564.4 -37.1351 22468.8
 06 11 2015  22 06  -14.4538 17912.7 -13564.9 -37.1359 22469.3
 06 11 2015  22 07  -14.4533 17910.4 -13564.5 -37.1384 22467.3
 06 11 2015  22 08  -14.4527 17909.2 -13564.5 -37.1403 22466.3
 06 11 2015  22 09  -14.4536 17907.7 -13565.0 -37.1435 22465.4
 06 11 2015  22 10  -14.4549 17905.6 -13564.2 -37.1453 22463.3
 06 11 2015  22 11  -14.4568 17904.0 -13564.1 -37.1475 22462.0
 06 11 2015  22 12  -14.4571 17904.0 -13565.0 -37.1493 22462.5
 06 11 2015  22 13  -14.4600 17903.0 -13564.9 -37.1506 22461.6
 06 11 2015  22 14  -14.4626 17902.8 -13565.0 -37.1512 22461.5
 06 11 2015  22 15  -14.4646 17903.6 -13565.6 -37.1511 22462.5
 06 11 2015  22 16  -14.4663 17903.0 -13565.6 -37.1521 22462.1
 06 11 2015  22 17  -14.4695 17901.4 -13564.5 -37.1525 22460.1
 06 11 2015  22 18  -14.4713 17901.7 -13564.9 -37.1527 22460.6
 06 11 2015  22 19  -14.4733 17902.1 -13565.5 -37.1534 22461.3
 06 11 2015  22 20  -14.4736 17903.0 -13566.2 -37.1533 22462.4
 06 11 2015  22 21  -14.4742 17903.6 -13565.9 -37.1518 22462.7
 06 11 2015  22 22  -14.4755 17904.0 -13565.9 -37.1512 22463.0
 06 11 2015  22 23  -14.4769 17904.4 -13565.6 -37.1500 22463.2
 06 11 2015  22 24  -14.4771 17905.9 -13565.6 -37.1477 22464.3
 06 11 2015  22 25  -14.4784 17907.5 -13565.8 -37.1456 22465.8
 06 11 2015  22 26  -14.4781 17908.5 -13566.2 -37.1448 22466.7
 06 11 2015  22 27  -14.4778 17909.8 -13565.9 -37.1422 22467.6
 06 11 2015  22 28  -14.4775 17911.2 -13566.2 -37.1407 22468.9
 06 11 2015  22 29  -14.4777 17911.2 -13565.4 -37.1392 22468.5
 06 11 2015  22 30  -14.4768 17913.5 -13565.8 -37.1364 22470.5
 06 11 2015  22 31  -14.4776 17913.5 -13565.3 -37.1353 22470.2
 06 11 2015  22 32  -14.4783 17914.0 -13565.2 -37.1344 22470.5
 06 11 2015  22 33  -14.4781 17914.5 -13565.0 -37.1332 22470.8
 06 11 2015  22 34  -14.4781 17915.2 -13564.9 -37.1320 22471.3
 06 11 2015  22 35  -14.4788 17915.2 -13564.7 -37.1315 22471.3
 06 11 2015  22 36  -14.4784 17916.8 -13564.9 -37.1296 22472.6
 06 11 2015  22 37  -14.4784 17918.0 -13565.0 -37.1278 22473.7
 06 11 2015  22 38  -14.4801 17918.3 -13564.7 -37.1268 22473.7
 06 11 2015  22 39  -14.4820 17917.4 -13564.2 -37.1271 22472.7
 06 11 2015  22 40  -14.4828 17918.0 -13564.0 -37.1257 22473.0
 06 11 2015  22 41  -14.4844 17918.6 -13564.3 -37.1253 22473.7
 06 11 2015  22 42  -14.4860 17917.6 -13563.8 -37.1259 22472.6
 06 11 2015  22 43  -14.4869 17918.0 -13563.9 -37.1255 22473.0
 06 11 2015  22 44  -14.4882 17918.0 -13564.1 -37.1259 22473.1
 06 11 2015  22 45  -14.4892 17918.2 -13563.8 -37.1252 22473.1
 06 11 2015  22 46  -14.4884 17919.6 -13564.3 -37.1239 22474.4
 06 11 2015  22 47  -14.4889 17920.0 -13563.9 -37.1225 22474.5
 06 11 2015  22 48  -14.4890 17920.0 -13564.2 -37.1232 22474.7
 06 11 2015  22 49  -14.4888 17919.1 -13564.1 -37.1243 22473.9
 06 11 2015  22 50  -14.4865 17920.9 -13564.3 -37.1219 22475.5
 06 11 2015  22 51  -14.4862 17922.4 -13564.6 -37.1203 22476.9
 06 11 2015  22 52  -14.4843 17924.0 -13564.3 -37.1173 22478.0
 06 11 2015  22 53  -14.4823 17927.0 -13564.9 -37.1138 22480.7
 06 11 2015  22 54  -14.4824 17927.3 -13564.3 -37.1121 22480.6
 06 11 2015  22 55  -14.4806 17928.0 -13564.8 -37.1120 22481.4
 06 11 2015  22 56  -14.4789 17928.8 -13564.4 -37.1099 22481.9
 06 11 2015  22 57  -14.4782 17928.4 -13564.2 -37.1103 22481.5
 06 11 2015  22 58  -14.4774 17928.1 -13563.6 -37.1095 22480.9
 06 11 2015  22 59  -14.4756 17928.3 -13563.5 -37.1090 22480.9
 06 11 2015  23 00  -14.4743 17928.2 -13563.7 -37.1095 22481.0
 06 11 2015  23 01  -14.4738 17926.2 -13563.2 -37.1115 22479.1
 06 11 2015  23 02  -14.4715 17927.7 -13563.4 -37.1097 22480.4
 06 11 2015  23 03  -14.4726 17927.9 -13563.5 -37.1095 22480.6
 06 11 2015  23 04  -14.4729 17927.5 -13563.3 -37.1098 22480.2
 06 11 2015  23 05  -14.4736 17928.2 -13564.0 -37.1102 22481.1
 06 11 2015  23 06  -14.4747 17925.3 -13563.4 -37.1133 22478.5
 06 11 2015  23 07  -14.4718 17926.2 -13563.4 -37.1119 22479.2
 06 11 2015  23 08  -14.4731 17926.0 -13563.9 -37.1133 22479.3
 06 11 2015  23 09  -14.4753 17924.4 -13563.1 -37.1140 22477.6
 06 11 2015  23 10  -14.4741 17925.2 -13563.7 -37.1140 22478.6
 06 11 2015  23 11  -14.4735 17927.1 -13564.5 -37.1128 22480.6
 06 11 2015  23 12  -14.4728 17927.5 -13564.2 -37.1116 22480.7
 06 11 2015  23 13  -14.4717 17927.0 -13564.1 -37.1121 22480.3
 06 11 2015  23 14  -14.4704 17927.9 -13564.6 -37.1119 22481.3
 06 11 2015  23 15  -14.4684 17930.4 -13564.8 -37.1084 22483.4
 06 11 2015  23 16  -14.4672 17932.9 -13565.4 -37.1057 22485.7
 06 11 2015  23 17  -14.4676 17933.6 -13564.7 -37.1031 22485.9
 06 11 2015  23 18  -14.4724 17930.6 -13564.1 -37.1067 22483.1
 06 11 2015  23 19  -14.4765 17927.7 -13563.1 -37.1091 22480.2
 06 11 2015  23 20  -14.4797 17926.8 -13563.5 -37.1112 22479.7
 06 11 2015  23 21  -14.4834 17925.9 -13563.9 -37.1134 22479.3
 06 11 2015  23 22  -14.4872 17924.6 -13563.5 -37.1145 22478.0
 06 11 2015  23 23  -14.4897 17924.7 -13563.9 -37.1153 22478.3
 06 11 2015  23 24  -14.4930 17924.3 -13564.3 -37.1167 22478.3
 06 11 2015  23 25  -14.4962 17924.4 -13564.5 -37.1169 22478.4
 06 11 2015  23 26  -14.5017 17922.3 -13564.3 -37.1197 22476.7
 06 11 2015  23 27  -14.5070 17920.2 -13564.2 -37.1228 22474.9
 06 11 2015  23 28  -14.5110 17919.2 -13563.9 -37.1238 22473.9
 06 11 2015  23 29  -14.5151 17917.5 -13564.2 -37.1270 22472.7
 06 11 2015  23 30  -14.5185 17916.2 -13564.2 -37.1290 22471.8
 06 11 2015  23 31  -14.5222 17914.5 -13564.3 -37.1318 22470.4
 06 11 2015  23 32  -14.5254 17913.0 -13564.7 -37.1349 22469.5
 06 11 2015  23 33  -14.5278 17911.7 -13564.9 -37.1374 22468.6
 06 11 2015  23 34  -14.5300 17910.4 -13565.1 -37.1397 22467.7
 06 11 2015  23 35  -14.5310 17908.9 -13565.6 -37.1430 22466.8
 06 11 2015  23 36  -14.5315 17907.6 -13565.9 -37.1456 22465.9
 06 11 2015  23 37  -14.5307 17906.6 -13565.8 -37.1471 22465.0
 06 11 2015  23 38  -14.5298 17905.1 -13565.9 -37.1494 22463.9
 06 11 2015  23 39  -14.5274 17904.3 -13566.5 -37.1519 22463.6
 06 11 2015  23 40  -14.5249 17904.5 -13566.5 -37.1515 22463.8
 06 11 2015  23 41  -14.5226 17904.3 -13566.8 -37.1526 22463.7
 06 11 2015  23 42  -14.5216 17904.2 -13567.6 -37.1543 22464.2
 06 11 2015  23 43  -14.5225 17904.0 -13567.3 -37.1539 22463.9
 06 11 2015  23 44  -14.5228 17903.5 -13567.7 -37.1555 22463.7
 06 11 2015  23 45  -14.5232 17903.3 -13567.5 -37.1556 22463.4
 06 11 2015  23 46  -14.5237 17903.1 -13567.7 -37.1563 22463.4
 06 11 2015  23 47  -14.5244 17903.3 -13567.8 -37.1562 22463.6
 06 11 2015  23 48  -14.5246 17903.6 -13568.4 -37.1570 22464.2
 06 11 2015  23 49  -14.5259 17903.5 -13567.7 -37.1556 22463.7
 06 11 2015  23 50  -14.5265 17903.9 -13568.5 -37.1567 22464.4
 06 11 2015  23 51  -14.5288 17903.6 -13568.0 -37.1560 22463.9
 06 11 2015  23 52  -14.5299 17903.5 -13568.2 -37.1568 22464.0
 06 11 2015  23 53  -14.5309 17903.2 -13567.6 -37.1559 22463.4
 06 11 2015  23 54  -14.5306 17902.8 -13568.0 -37.1574 22463.3
 06 11 2015  23 55  -14.5304 17902.5 -13567.7 -37.1571 22462.9
 06 11 2015  23 56  -14.5305 17901.7 -13567.9 -37.1589 22462.4
 06 11 2015  23 57  -14.5309 17901.3 -13567.8 -37.1593 22462.0
 06 11 2015  23 58  -14.5302 17902.0 -13568.7 -37.1600 22463.1
SAO MARTINHO DA SERRA EMBRACE-06 <310> 1 Min. Reported data

 DD MM YYYY  HH MM   D(Deg)  H(nT)   Z(nT)   I(Deg)   F(nT)

 06 11 2015  00 00  -14.5356 17911.5 -13564.5 -37.1368 22468.2
 06 11 2015  00 01  -14.5354 17911.7 -13564.5 -37.1366 22468.3
 06 11 2015  00 02  -14.5361 17912.3 -13564.7 -37.1359 22468.9
 06 11 2015  00 03  -14.5367 17912.8 -13565.1 -37.1361 22469.5
 06 11 2015  00 04  -14.5371 17913.2 -13565.5 -37.1362 22470.1
 06 11 2015  00 05  -14.5381 17913.8 -13564.7 -37.1337 22470.1
 06 11 2015  00 06  -14.5388 17914.6 -13565.4 -37.1338 22471.2
 06 11 2015  00 07  -14.5396 17915.5 -13565.4 -37.1325 22471.8
 06 11 2015  00 08  -14.5403 17916.1 -13565.2 -37.1312 22472.3
 06 11 2015  00 09  -14.5410 17916.9 -13565.1 -37.1297 22472.8
 06 11 2015  00 10  -14.5412 17917.9 -13565.3 -37.1287 22473.8
 06 11 2015  00 11  -14.5416 17918.9 -13564.8 -37.1260 22474.2
 06 11 2015  00 12  -14.5417 17919.7 -13564.7 -37.1247 22474.8
 06 11 2015  00 13  -14.5420 17920.7 -13564.8 -37.1233 22475.6
 06 11 2015  00 14  -14.5423 17921.2 -13564.6 -37.1221 22475.9
 06 11 2015  00 15  -14.5426 17921.6 -13564.3 -37.1210 22476.1
 06 11 2015  00 16  -14.5428 17921.9 -13564.2 -37.1201 22476.2
 06 11 2015  00 17  -14.5427 17922.4 -13564.1 -37.1193 22476.6
 06 11 2015  00 18  -14.5427 17922.7 -13564.0 -37.1184 22476.8
 06 11 2015  00 19  -14.5423 17923.0 -13563.9 -37.1179 22477.0
 06 11 2015  00 20  -14.5421 17923.0 -13564.1 -37.1184 22477.0
 06 11 2015  00 21  -14.5415 17923.1 -13563.9 -37.1178 22477.1
 06 11 2015  00 22  -14.5409 17923.0 -13563.8 -37.1177 22476.9
 06 11 2015  00 23  -14.5400 17922.8 -13563.7 -37.1178 22476.7
 06 11 2015  00 24  -14.5392 17922.7 -13563.6 -37.1177 22476.5
 06 11 2015  00 25  -14.5387 17922.3 -13563.7 -37.1184 22476.3
 06 11 2015  00 26  -14.5384 17922.1 -13563.2 -37.1179 22475.8
 06 11 2015  00 27  -14.5379 17921.7 -13563.5 -37.1191 22475.7
 06 11 2015  00 28  -14.5377 17921.0 -13563.3 -37.1198 22475.0
 06 11 2015  00 29  -14.5371 17920.5 -13563.8 -37.1214 22474.9
 06 11 2015  00 30  -14.5363 17920.4 -13564.0 -37.1222 22475.0
 06 11 2015  00 31  -14.5365 17919.9 -13564.1 -37.1230 22474.6
 06 11 2015  00 32  -14.5364 17919.7 -13563.7 -37.1226 22474.2
 06 11 2015  00 33  -14.5368 17919.2 -13563.9 -37.1237 22473.9
 06 11 2015  00 34  -14.5372 17918.7 -13564.0 -37.1247 22473.6
 06 11 2015  00 35  -14.5376 17918.3 -13563.8 -37.1248 22473.1
 06 11 2015  00 36  -14.5377 17918.0 -13564.1 -37.1259 22473.1
 06 11 2015  00 37  -14.5377 17917.8 -13564.1 -37.1263 22472.9
 06 11 2015  00 38  -14.5378 17917.5 -13564.3 -37.1272 22472.8
 06 11 2015  00 39  -14.5379 17917.3 -13564.7 -37.1283 22472.9
 06 11 2015  00 40  -14.5381 17917.2 -13564.3 -37.1276 22472.6
 06 11 2015  00 41  -14.5382 17917.2 -13564.6 -37.1283 22472.7
 06 11 2015  00 42  -14.5382 17917.1 -13564.3 -37.1279 22472.5
 06 11 2015  00 43  -14.5382 17917.0 -13564.4 -37.1281 22472.5
 06 11 2015  00 44  -14.5383 17917.1 -13564.8 -37.1288 22472.8
 06 11 2015  00 45  -14.5385 17917.2 -13564.6 -37.1282 22472.8
 06 11 2015  00 46  -14.5387 17917.4 -13564.8 -37.1283 22473.0
 06 11 2015  00 47  -14.5387 17917.5 -13564.8 -37.1282 22473.1
 06 11 2015  00 48  -14.5386 17917.6 -13564.8 -37.1281 22473.2
 06 11 2015  00 49  -14.5385 17917.7 -13564.9 -37.1281 22473.3
 06 11 2015  00 50  -14.5384 17917.6 -13564.8 -37.1280 22473.2
 06 11 2015  00 51  -14.5379 17917.7 -13564.8 -37.1278 22473.3
 06 11 2015  00 52  -14.5374 17917.7 -13564.9 -37.1280 22473.3
 06 11 2015  00 53  -14.5367 17917.5 -13564.9 -37.1284 22473.1
 06 11 2015  00 54  -14.5362 17917.4 -13564.9 -37.1286 22473.1
 06 11 2015  00 55  -14.5359 17917.2 -13564.8 -37.1286 22472.9
 06 11 2015  00 56  -14.5356 17917.0 -13564.8 -37.1291 22472.7
 06 11 2015  00 57  -14.5352 17916.7 -13564.8 -37.1293 22472.5
 06 11 2015  00 58  -14.5346 17916.8 -13564.8 -37.1294 22472.6
 06 11 2015  00 59  -14.5341 17916.9 -13565.1 -37.1298 22472.8
 06 11 2015  01 00  -14.5334 17916.7 -13564.9 -37.1296 22472.6
 06 11 2015  01 01  -14.5328 17916.5 -13565.0 -37.1300 22472.5
 06 11 2015  01 02  -14.5322 17916.5 -13565.1 -37.1303 22472.5
 06 11 2015  01 03  -14.5320 17916.4 -13565.0 -37.1302 22472.3
 06 11 2015  01 04  -14.5316 17916.5 -13565.1 -37.1303 22472.5
 06 11 2015  01 05  -14.5315 17916.6 -13565.1 -37.1301 22472.5
 06 11 2015  01 06  -14.5310 17916.8 -13565.2 -37.1302 22472.8
 06 11 2015  01 07  -14.5306 17916.9 -13565.2 -37.1300 22472.9
 06 11 2015  01 08  -14.5302 17917.0 -13565.1 -37.1295 22472.9
 06 11 2015  01 09  -14.5296 17917.1 -13565.2 -37.1295 22473.1
 06 11 2015  01 10  -14.5290 17917.3 -13565.4 -37.1298 22473.4
 06 11 2015  01 11  -14.5285 17917.5 -13565.2 -37.1291 22473.3
 06 11 2015  01 12  -14.5279 17917.9 -13565.2 -37.1284 22473.7
 06 11 2015  01 13  -14.5272 17918.1 -13565.2 -37.1280 22473.9
 06 11 2015  01 14  -14.5266 17918.1 -13565.2 -37.1280 22473.8
 06 11 2015  01 15  -14.5260 17918.2 -13565.2 -37.1279 22473.9
 06 11 2015  01 16  -14.5256 17918.4 -13565.2 -37.1276 22474.1
 06 11 2015  01 17  -14.5250 17918.6 -13565.6 -37.1281 22474.5
 06 11 2015  01 18  -14.5247 17918.8 -13565.3 -37.1272 22474.4
 06 11 2015  01 19  -14.5243 17919.0 -13565.0 -37.1262 22474.5
 06 11 2015  01 20  -14.5232 17919.5 -13565.2 -37.1260 22475.0
 06 11 2015  01 21  -14.5223 17919.8 -13565.4 -37.1258 22475.3
 06 11 2015  01 22  -14.5212 17920.1 -13565.3 -37.1253 22475.5
 06 11 2015  01 23  -14.5201 17920.2 -13565.2 -37.1248 22475.5
 06 11 2015  01 24  -14.5189 17920.5 -13565.1 -37.1242 22475.7
 06 11 2015  01 25  -14.5179 17921.0 -13565.3 -37.1237 22476.2
 06 11 2015  01 26  -14.5170 17921.1 -13565.6 -37.1242 22476.5
 06 11 2015  01 27  -14.5160 17921.6 -13565.3 -37.1229 22476.7
 06 11 2015  01 28  -14.5150 17922.2 -13565.1 -37.1215 22477.0
 06 11 2015  01 29  -14.5143 17922.6 -13565.6 -37.1219 22477.6
 06 11 2015  01 30  -14.5133 17923.2 -13565.3 -37.1203 22478.0
 06 11 2015  01 31  -14.5123 17924.0 -13565.7 -37.1200 22478.9
 06 11 2015  01 32  -14.5118 17924.4 -13565.6 -37.1191 22479.0
 06 11 2015  01 33  -14.5112 17924.7 -13565.5 -37.1185 22479.3
 06 11 2015  01 34  -14.5109 17924.9 -13565.8 -37.1190 22479.6
 06 11 2015  01 35  -14.5104 17925.2 -13565.4 -37.1176 22479.6
 06 11 2015  01 36  -14.5098 17925.3 -13565.4 -37.1174 22479.7
 06 11 2015  01 37  -14.5093 17925.3 -13565.6 -37.1178 22479.8
 06 11 2015  01 38  -14.5092 17925.4 -13565.3 -37.1170 22479.7
 06 11 2015  01 39  -14.5089 17925.5 -13565.5 -37.1173 22480.0
 06 11 2015  01 40  -14.5090 17925.6 -13565.3 -37.1166 22479.9
 06 11 2015  01 41  -14.5091 17925.5 -13565.1 -37.1165 22479.7
 06 11 2015  01 42  -14.5089 17925.5 -13565.5 -37.1172 22479.9
 06 11 2015  01 43  -14.5092 17925.5 -13564.9 -37.1161 22479.5
 06 11 2015  01 44  -14.5097 17925.3 -13564.7 -37.1160 22479.2
 06 11 2015  01 45  -14.5104 17924.8 -13564.5 -37.1162 22478.7
 06 11 2015  01 46  -14.5111 17924.4 -13564.6 -37.1171 22478.5
 06 11 2015  01 47  -14.5117 17924.0 -13564.8 -37.1182 22478.2
 06 11 2015  01 48  -14.5123 17923.8 -13565.1 -37.1191 22478.3
 06 11 2015  01 49  -14.5130 17923.7 -13565.2 -37.1195 22478.3
 06 11 2015  01 50  -14.5136 17923.5 -13564.6 -37.1187 22477.7
 06 11 2015  01 51  -14.5140 17923.3 -13565.2 -37.1201 22478.0
 06 11 2015  01 52  -14.5145 17923.2 -13565.2 -37.1203 22477.9
 06 11 2015  01 53  -14.5151 17923.1 -13564.8 -37.1197 22477.6
 06 11 2015  01 54  -14.5154 17923.3 -13564.8 -37.1193 22477.7
 06 11 2015  01 55  -14.5156 17923.3 -13565.6 -37.1208 22478.2
 06 11 2015  01 56  -14.5159 17923.4 -13565.3 -37.1201 22478.1
 06 11 2015  01 57  -14.5162 17923.1 -13565.2 -37.1202 22477.8
 06 11 2015  01 58  -14.5163 17923.1 -13565.2 -37.1204 22477.8
 06 11 2015  01 59  -14.5166 17923.0 -13564.9 -37.1200 22477.6
 06 11 2015  02 00  -14.5169 17922.9 -13565.7 -37.1217 22477.9
 06 11 2015  02 01  -14.5177 17922.8 -13565.1 -37.1206 22477.5
 06 11 2015  02 02  -14.5178 17922.8 -13565.0 -37.1204 22477.4
 06 11 2015  02 03  -14.5179 17922.6 -13565.2 -37.1210 22477.4
 06 11 2015  02 04  -14.5181 17922.5 -13565.2 -37.1213 22477.4
 06 11 2015  02 05  -14.5180 17922.7 -13565.3 -37.1212 22477.5
 06 11 2015  02 06  -14.5179 17922.8 -13565.4 -37.1212 22477.7
 06 11 2015  02 07  -14.5181 17922.7 -13565.1 -37.1206 22477.4
 06 11 2015  02 08  -14.5181 17922.7 -13565.5 -37.1214 22477.7
 06 11 2015  02 09  -14.5184 17922.9 -13565.3 -37.1208 22477.7
 06 11 2015  02 10  -14.5185 17922.9 -13565.2 -37.1208 22477.6
 06 11 2015  02 11  -14.5188 17922.9 -13565.3 -37.1209 22477.7
 06 11 2015  02 12  -14.5191 17922.5 -13565.2 -37.1211 22477.3
 06 11 2015  02 13  -14.5191 17922.4 -13565.2 -37.1216 22477.3
 06 11 2015  02 14  -14.5193 17922.3 -13565.2 -37.1215 22477.2
 06 11 2015  02 15  -14.5195 17922.2 -13565.3 -37.1219 22477.2
 06 11 2015  02 16  -14.5198 17922.2 -13565.2 -37.1217 22477.1
 06 11 2015  02 17  -14.5199 17922.4 -13565.5 -37.1221 22477.4
 06 11 2015  02 18  -14.5202 17922.5 -13565.5 -37.1219 22477.5
 06 11 2015  02 19  -14.5205 17922.5 -13565.5 -37.1219 22477.5
 06 11 2015  02 20  -14.5206 17922.5 -13565.5 -37.1219 22477.5
 06 11 2015  02 21  -14.5206 17922.6 -13565.6 -37.1220 22477.6
 06 11 2015  02 22  -14.5208 17922.3 -13565.4 -37.1220 22477.3
 06 11 2015  02 23  -14.5209 17922.2 -13565.5 -37.1223 22477.3
 06 11 2015  02 24  -14.5210 17922.2 -13565.6 -37.1227 22477.3
 06 11 2015  02 25  -14.5210 17922.1 -13565.4 -37.1223 22477.2
 06 11 2015  02 26  -14.5208 17922.0 -13565.1 -37.1218 22476.9
 06 11 2015  02 27  -14.5203 17922.0 -13565.6 -37.1229 22477.2
 06 11 2015  02 28  -14.5202 17922.1 -13565.2 -37.1219 22477.0
 06 11 2015  02 29  -14.5196 17922.0 -13565.7 -37.1231 22477.2
 06 11 2015  02 30  -14.5195 17922.0 -13565.6 -37.1228 22477.2
 06 11 2015  02 31  -14.5193 17922.0 -13566.0 -37.1236 22477.4
 06 11 2015  02 32  -14.5191 17922.0 -13566.0 -37.1236 22477.4
 06 11 2015  02 33  -14.5192 17922.0 -13565.8 -37.1233 22477.4
 06 11 2015  02 34  -14.5193 17922.1 -13566.1 -37.1236 22477.6
 06 11 2015  02 35  -14.5196 17922.2 -13566.0 -37.1234 22477.6
 06 11 2015  02 36  -14.5197 17922.3 -13566.0 -37.1233 22477.7
 06 11 2015  02 37  -14.5194 17922.3 -13566.2 -37.1236 22477.7
 06 11 2015  02 38  -14.5194 17922.2 -13565.8 -37.1231 22477.4
 06 11 2015  02 39  -14.5191 17922.0 -13565.8 -37.1232 22477.3
 06 11 2015  02 40  -14.5184 17921.8 -13565.7 -37.1235 22477.1
 06 11 2015  02 41  -14.5178 17921.6 -13565.5 -37.1233 22476.8
 06 11 2015  02 42  -14.5174 17921.5 -13566.1 -37.1246 22477.1
 06 11 2015  02 43  -14.5174 17921.3 -13566.4 -37.1255 22477.1
 06 11 2015  02 44  -14.5179 17921.2 -13565.9 -37.1246 22476.7
 06 11 2015  02 45  -14.5178 17921.1 -13566.9 -37.1269 22477.3
 06 11 2015  02 46  -14.5185 17920.8 -13566.3 -37.1261 22476.6
 06 11 2015  02 47  -14.5188 17920.7 -13565.8 -37.1254 22476.3
 06 11 2015  02 48  -14.5188 17920.5 -13566.5 -37.1271 22476.5
 06 11 2015  02 49  -14.5190 17920.2 -13566.3 -37.1270 22476.2
 06 11 2015  02 50  -14.5190 17920.1 -13566.5 -37.1277 22476.2
 06 11 2015  02 51  -14.5188 17919.8 -13566.5 -37.1280 22476.0
 06 11 2015  02 52  -14.5187 17919.7 -13566.3 -37.1279 22475.8
 06 11 2015  02 53  -14.5186 17919.7 -13566.6 -37.1284 22475.9
 06 11 2015  02 54  -14.5189 17919.6 -13566.4 -37.1283 22475.8
 06 11 2015  02 55  -14.5191 17919.5 -13566.4 -37.1283 22475.7
 06 11 2015  02 56  -14.5190 17919.3 -13567.0 -37.1298 22475.9
 06 11 2015  02 57  -14.5189 17919.2 -13566.7 -37.1294 22475.6
 06 11 2015  02 58  -14.5187 17919.3 -13567.4 -37.1307 22476.1
 06 11 2015  02 59  -14.5188 17919.4 -13566.9 -37.1294 22475.9
 06 11 2015  03 00  -14.5188 17919.6 -13566.7 -37.1289 22475.9
 06 11 2015  03 01  -14.5187 17919.7 -13567.2 -37.1297 22476.3
 06 11 2015  03 02  -14.5185 17919.7 -13567.4 -37.1302 22476.5
 06 11 2015  03 03  -14.5186 17919.9 -13566.8 -37.1286 22476.2
 06 11 2015  03 04  -14.5184 17919.7 -13566.9 -37.1290 22476.2
 06 11 2015  03 05  -14.5181 17920.0 -13566.9 -37.1287 22476.3
 06 11 2015  03 06  -14.5179 17920.2 -13567.0 -37.1285 22476.5
 06 11 2015  03 07  -14.5179 17920.1 -13566.9 -37.1284 22476.5
 06 11 2015  03 08  -14.5178 17920.3 -13566.9 -37.1282 22476.6
 06 11 2015  03 09  -14.5178 17920.2 -13567.0 -37.1285 22476.6
 06 11 2015  03 10  -14.5177 17920.2 -13566.9 -37.1283 22476.5
 06 11 2015  03 11  -14.5177 17920.4 -13567.0 -37.1282 22476.7
 06 11 2015  03 12  -14.5179 17920.3 -13567.1 -37.1285 22476.7
 06 11 2015  03 13  -14.5177 17920.3 -13566.9 -37.1280 22476.6
 06 11 2015  03 14  -14.5176 17920.5 -13567.0 -37.1281 22476.9
 06 11 2015  03 15  -14.5175 17920.7 -13566.9 -37.1277 22476.9
 06 11 2015  03 16  -14.5174 17920.8 -13567.1 -37.1279 22477.1
 06 11 2015  03 17  -14.5175 17920.8 -13566.9 -37.1274 22477.1
 06 11 2015  03 18  -14.5172 17920.8 -13567.1 -37.1278 22477.1
 06 11 2015  03 19  -14.5170 17920.8 -13566.9 -37.1273 22477.0
 06 11 2015  03 20  -14.5167 17920.6 -13567.1 -37.1280 22477.0
 06 11 2015  03 21  -14.5164 17920.7 -13566.7 -37.1272 22476.8
 06 11 2015  03 22  -14.5162 17920.7 -13567.0 -37.1277 22477.0
 06 11 2015  03 23  -14.5160 17920.9 -13567.3 -37.1282 22477.3
 06 11 2015  03 24  -14.5161 17921.0 -13566.6 -37.1266 22477.0
 06 11 2015  03 25  -14.5160 17921.0 -13567.0 -37.1273 22477.2
 06 11 2015  03 26  -14.5161 17921.1 -13566.6 -37.1263 22477.0
 06 11 2015  03 27  -14.5163 17921.0 -13566.5 -37.1262 22476.9
 06 11 2015  03 28  -14.5163 17921.1 -13567.0 -37.1271 22477.3
 06 11 2015  03 29  -14.5162 17921.1 -13567.3 -37.1277 22477.5
 06 11 2015  03 30  -14.5166 17920.9 -13567.0 -37.1274 22477.2
 06 11 2015  03 31  -14.5169 17920.9 -13566.6 -37.1265 22476.9
 06 11 2015  03 32  -14.5170 17920.9 -13566.2 -37.1257 22476.7
 06 11 2015  03 33  -14.5172 17920.9 -13566.8 -37.1271 22477.1
 06 11 2015  03 34  -14.5172 17920.9 -13567.0 -37.1273 22477.2
 06 11 2015  03 35  -14.5173 17920.8 -13566.7 -37.1269 22476.8
 06 11 2015  03 36  -14.5171 17920.7 -13566.5 -37.1266 22476.7
 06 11 2015  03 37  -14.5168 17920.5 -13566.6 -37.1272 22476.6
 06 11 2015  03 38  -14.5160 17920.5 -13567.1 -37.1282 22476.9
 06 11 2015  03 39  -14.5159 17920.6 -13566.7 -37.1271 22476.7
 06 11 2015  03 40  -14.5159 17920.8 -13567.0 -37.1275 22477.1
 06 11 2015  03 41  -14.5157 17921.1 -13566.9 -37.1268 22477.3
 06 11 2015  03 42  -14.5155 17921.2 -13567.1 -37.1272 22477.5
 06 11 2015  03 43  -14.5152 17921.5 -13566.8 -37.1262 22477.5
 06 11 2015  03 44  -14.5152 17921.5 -13567.0 -37.1265 22477.6
 06 11 2015  03 45  -14.5154 17921.7 -13567.1 -37.1265 22477.8
 06 11 2015  03 46  -14.5157 17921.6 -13567.2 -37.1268 22477.8
 06 11 2015  03 47  -14.5157 17921.7 -13567.0 -37.1262 22477.8
 06 11 2015  03 48  -14.5156 17921.7 -13567.0 -37.1261 22477.7
 06 11 2015  03 49  -14.5154 17921.7 -13566.8 -37.1259 22477.7
 06 11 2015  03 50  -14.5150 17921.9 -13566.8 -37.1255 22477.8
 06 11 2015  03 51  -14.5148 17921.8 -13566.9 -37.1258 22477.8
 06 11 2015  03 52  -14.5143 17922.0 -13566.8 -37.1252 22477.9
 06 11 2015  03 53  -14.5143 17922.1 -13566.8 -37.1252 22478.0
 06 11 2015  03 54  -14.5145 17921.9 -13566.8 -37.1254 22477.9
 06 11 2015  03 55  -14.5147 17922.0 -13567.0 -37.1257 22478.0
 06 11 2015  03 56  -14.5148 17922.0 -13566.7 -37.1252 22477.8
 06 11 2015  03 57  -14.5148 17921.9 -13566.7 -37.1253 22477.8
 06 11 2015  03 58  -14.5147 17921.8 -13566.8 -37.1257 22477.7
 06 11 2015  03 59  -14.5149 17921.7 -13567.0 -37.1262 22477.8
 06 11 2015  04 00  -14.5157 17921.5 -13566.9 -37.1263 22477.6
 06 11 2015  04 01  -14.5167 17921.2 -13566.8 -37.1266 22477.3
 06 11 2015  04 02  -14.5175 17920.9 -13566.9 -37.1271 22477.1
 06 11 2015  04 03  -14.5182 17920.8 -13566.8 -37.1270 22476.9
 06 11 2015  04 04  -14.5185 17920.7 -13566.9 -37.1275 22476.9
 06 11 2015  04 05  -14.5187 17920.8 -13567.0 -37.1274 22477.1
 06 11 2015  04 06  -14.5188 17921.0 -13567.0 -37.1273 22477.2
 06 11 2015  04 07  -14.5187 17921.2 -13567.0 -37.1270 22477.4
 06 11 2015  04 08  -14.5185 17921.4 -13567.3 -37.1273 22477.8
 06 11 2015  04 09  -14.5181 17921.4 -13567.2 -37.1269 22477.7
 06 11 2015  04 10  -14.5175 17921.5 -13567.4 -37.1274 22477.9
 06 11 2015  04 11  -14.5175 17921.4 -13567.1 -37.1268 22477.6
 06 11 2015  04 12  -14.5177 17921.5 -13567.1 -37.1268 22477.7
 06 11 2015  04 13  -14.5177 17921.6 -13567.2 -37.1268 22477.9
 06 11 2015  04 14  -14.5178 17921.6 -13567.3 -37.1269 22477.9
 06 11 2015  04 15  -14.5181 17921.6 -13567.0 -37.1263 22477.7
 06 11 2015  04 16  -14.5184 17921.8 -13567.3 -37.1265 22478.1
 06 11 2015  04 17  -14.5191 17921.8 -13567.1 -37.1263 22477.9
 06 11 2015  04 18  -14.5198 17921.7 -13567.4 -37.1271 22478.1
 06 11 2015  04 19  -14.5208 17921.7 -13567.0 -37.1262 22477.7
 06 11 2015  04 20  -14.5215 17921.6 -13567.3 -37.1270 22477.9
 06 11 2015  04 21  -14.5223 17921.6 -13566.9 -37.1261 22477.6
 06 11 2015  04 22  -14.5228 17921.6 -13566.8 -37.1258 22477.6
 06 11 2015  04 23  -14.5232 17921.7 -13566.9 -37.1259 22477.7
 06 11 2015  04 24  -14.5236 17921.9 -13567.2 -37.1263 22478.0
 06 11 2015  04 25  -14.5241 17922.0 -13566.7 -37.1252 22477.8
 06 11 2015  04 26  -14.5243 17922.0 -13567.7 -37.1272 22478.4
 06 11 2015  04 27  -14.5245 17922.1 -13567.4 -37.1263 22478.4
 06 11 2015  04 28  -14.5246 17922.2 -13567.4 -37.1262 22478.5
 06 11 2015  04 29  -14.5248 17922.2 -13567.5 -37.1263 22478.5
 06 11 2015  04 30  -14.5250 17922.3 -13567.3 -37.1260 22478.4
 06 11 2015  04 31  -14.5251 17922.2 -13567.2 -37.1259 22478.3
 06 11 2015  04 32  -14.5249 17922.3 -13567.4 -37.1261 22478.5
 06 11 2015  04 33  -14.5249 17922.2 -13567.3 -37.1261 22478.4
 06 11 2015  04 34  -14.5247 17922.1 -13567.4 -37.1264 22478.3
 06 11 2015  04 35  -14.5248 17922.0 -13567.3 -37.1264 22478.2
 06 11 2015  04 36  -14.5249 17922.1 -13567.4 -37.1265 22478.3
 06 11 2015  04 37  -14.5251 17922.1 -13567.3 -37.1263 22478.3
 06 11 2015  04 38  -14.5253 17922.1 -13567.3 -37.1260 22478.3
 06 11 2015  04 39  -14.5255 17922.1 -13567.1 -37.1258 22478.1
 06 11 2015  04 40  -14.5256 17922.1 -13567.6 -37.1269 22478.5
 06 11 2015  04 41  -14.5260 17922.1 -13567.3 -37.1263 22478.3
 06 11 2015  04 42  -14.5262 17922.2 -13567.6 -37.1266 22478.5
 06 11 2015  04 43  -14.5265 17922.3 -13567.7 -37.1268 22478.7
 06 11 2015  04 44  -14.5269 17922.2 -13567.3 -37.1261 22478.4
 06 11 2015  04 45  -14.5272 17922.2 -13567.4 -37.1262 22478.4
 06 11 2015  04 46  -14.5273 17922.2 -13567.8 -37.1269 22478.7
 06 11 2015  04 47  -14.5277 17922.2 -13567.3 -37.1260 22478.4
 06 11 2015  04 48  -14.5278 17922.4 -13567.6 -37.1264 22478.7
 06 11 2015  04 49  -14.5280 17922.3 -13567.8 -37.1268 22478.7
 06 11 2015  04 50  -14.5278 17922.4 -13567.5 -37.1260 22478.6
 06 11 2015  04 51  -14.5277 17922.4 -13567.5 -37.1261 22478.6
 06 11 2015  04 52  -14.5275 17922.5 -13567.8 -37.1265 22478.9
 06 11 2015  04 53  -14.5273 17922.6 -13567.6 -37.1259 22478.9
 06 11 2015  04 54  -14.5272 17922.6 -13567.6 -37.1261 22478.9
 06 11 2015  04 55  -14.5272 17922.4 -13567.7 -37.1265 22478.8
 06 11 2015  04 56  -14.5273 17922.4 -13567.1 -37.1254 22478.4
 06 11 2015  04 57  -14.5273 17922.3 -13567.4 -37.1261 22478.6
 06 11 2015  04 58  -14.5275 17922.2 -13567.3 -37.1260 22478.4
 06 11 2015  04 59  -14.5275 17922.1 -13567.9 -37.1273 22478.7
 06 11 2015  05 00  -14.5276 17922.0 -13567.6 -37.1269 22478.4
 06 11 2015  05 01  -14.5277 17922.0 -13567.6 -37.1270 22478.4
 06 11 2015  05 02  -14.5278 17922.0 -13567.7 -37.1270 22478.5
 06 11 2015  05 03  -14.5281 17921.9 -13567.5 -37.1269 22478.3
 06 11 2015  05 04  -14.5281 17922.1 -13567.7 -37.1269 22478.5
 06 11 2015  05 05  -14.5282 17922.1 -13567.7 -37.1270 22478.5
 06 11 2015  05 06  -14.5285 17922.0 -13567.5 -37.1266 22478.3
 06 11 2015  05 07  -14.5286 17922.1 -13567.6 -37.1267 22478.4
 06 11 2015  05 08  -14.5288 17922.0 -13567.6 -37.1268 22478.4
 06 11 2015  05 09  -14.5289 17922.1 -13567.6 -37.1269 22478.4
 06 11 2015  05 10  -14.5292 17922.0 -13567.7 -37.1270 22478.4
 06 11 2015  05 11  -14.5295 17921.9 -13567.5 -37.1269 22478.3
 06 11 2015  05 12  -14.5297 17922.0 -13567.6 -37.1271 22478.4
 06 11 2015  05 13  -14.5299 17922.2 -13567.3 -37.1261 22478.4
 06 11 2015  05 14  -14.5299 17922.6 -13567.6 -37.1260 22478.9
 06 11 2015  05 15  -14.5303 17922.7 -13567.7 -37.1260 22479.0
 06 11 2015  05 16  -14.5303 17923.1 -13567.3 -37.1247 22479.1
 06 11 2015  05 17  -14.5299 17923.7 -13567.2 -37.1234 22479.5
 06 11 2015  05 18  -14.5293 17924.2 -13567.6 -37.1236 22480.1
 06 11 2015  05 19  -14.5291 17924.7 -13567.7 -37.1230 22480.6
 06 11 2015  05 20  -14.5290 17924.9 -13567.1 -37.1216 22480.4
 06 11 2015  05 21  -14.5286 17925.2 -13567.6 -37.1220 22481.0
 06 11 2015  05 22  -14.5284 17925.3 -13567.6 -37.1219 22481.1
 06 11 2015  05 23  -14.5281 17925.6 -13567.5 -37.1212 22481.3
 06 11 2015  05 24  -14.5279 17925.9 -13566.9 -37.1194 22481.0
 06 11 2015  05 25  -14.5275 17925.9 -13567.3 -37.1203 22481.3
 06 11 2015  05 26  -14.5277 17925.9 -13567.0 -37.1198 22481.1
 06 11 2015  05 27  -14.5277 17925.9 -13566.5 -37.1188 22480.9
 06 11 2015  05 28  -14.5275 17926.1 -13567.3 -37.1201 22481.4
 06 11 2015  05 29  -14.5276 17926.1 -13567.0 -37.1195 22481.3
 06 11 2015  05 30  -14.5280 17926.1 -13566.8 -37.1191 22481.2
 06 11 2015  05 31  -14.5282 17926.1 -13566.9 -37.1192 22481.2
 06 11 2015  05 32  -14.5286 17926.1 -13566.4 -37.1181 22480.9
 06 11 2015  05 33  -14.5289 17926.2 -13566.3 -37.1179 22480.9
 06 11 2015  05 34  -14.5292 17926.2 -13566.8 -37.1189 22481.3
 06 11 2015  05 35  -14.5294 17926.2 -13567.2 -37.1196 22481.5
 06 11 2015  05 36  -14.5295 17926.3 -13566.9 -37.1189 22481.4
 06 11 2015  05 37  -14.5299 17926.3 -13566.9 -37.1189 22481.4
 06 11 2015  05 38  -14.5301 17926.4 -13566.6 -37.1181 22481.3
 06 11 2015  05 39  -14.5305 17926.4 -13566.6 -37.1182 22481.3
 06 11 2015  05 40  -14.5310 17926.2 -13566.3 -37.1177 22481.0
 06 11 2015  05 41  -14.5312 17926.2 -13567.1 -37.1195 22481.4
 06 11 2015  05 42  -14.5316 17926.2 -13566.5 -37.1181 22481.1
 06 11 2015  05 43  -14.5318 17926.3 -13566.7 -37.1185 22481.2
 06 11 2015  05 44  -14.5318 17926.3 -13567.0 -37.1192 22481.4
 06 11 2015  05 45  -14.5322 17926.2 -13566.5 -37.1183 22481.1
 06 11 2015  05 46  -14.5325 17926.3 -13566.4 -37.1180 22481.1
 06 11 2015  05 47  -14.5331 17926.2 -13566.8 -37.1189 22481.3
 06 11 2015  05 48  -14.5335 17926.4 -13566.6 -37.1181 22481.2
 06 11 2015  05 49  -14.5339 17926.5 -13566.5 -37.1177 22481.3
 06 11 2015  05 50  -14.5344 17926.6 -13565.8 -37.1161 22481.0
 06 11 2015  05 51  -14.5348 17926.8 -13566.3 -37.1170 22481.4
 06 11 2015  05 52  -14.5351 17926.9 -13566.0 -37.1162 22481.3
 06 11 2015  05 53  -14.5353 17926.9 -13566.2 -37.1165 22481.4
 06 11 2015  05 54  -14.5354 17927.0 -13565.7 -37.1153 22481.2
 06 11 2015  05 55  -14.5351 17927.2 -13566.3 -37.1163 22481.7
 06 11 2015  05 56  -14.5352 17927.2 -13565.9 -37.1155 22481.5
 06 11 2015  05 57  -14.5348 17927.2 -13566.7 -37.1171 22482.0
 06 11 2015  05 58  -14.5338 17927.3 -13566.9 -37.1173 22482.2
 06 11 2015  05 59  -14.5330 17927.5 -13566.6 -37.1164 22482.1
 06 11 2015  06 00  -14.5327 17927.6 -13566.3 -37.1157 22482.1
 06 11 2015  06 01  -14.5322 17927.7 -13566.9 -37.1169 22482.5
 06 11 2015  06 02  -14.5322 17927.6 -13566.4 -37.1160 22482.2
 06 11 2015  06 03  -14.5320 17927.7 -13565.8 -37.1144 22481.8
 06 11 2015  06 04  -14.5321 17927.6 -13565.9 -37.1149 22481.8
 06 11 2015  06 05  -14.5321 17927.6 -13566.3 -37.1156 22482.0
 06 11 2015  06 06  -14.5323 17927.6 -13565.7 -37.1144 22481.7
 06 11 2015  06 07  -14.5323 17927.8 -13566.3 -37.1154 22482.3
 06 11 2015  06 08  -14.5328 17928.0 -13566.0 -37.1144 22482.2
 06 11 2015  06 09  -14.5331 17928.0 -13566.2 -37.1148 22482.3
 06 11 2015  06 10  -14.5333 17928.0 -13566.2 -37.1149 22482.4
 06 11 2015  06 11  -14.5334 17928.1 -13566.1 -37.1145 22482.3
 06 11 2015  06 12  -14.5339 17928.2 -13566.2 -37.1146 22482.5
 06 11 2015  06 13  -14.5342 17928.4 -13566.1 -37.1140 22482.6
 06 11 2015  06 14  -14.5345 17928.5 -13566.3 -37.1142 22482.8
 06 11 2015  06 15  -14.5347 17928.7 -13566.3 -37.1141 22482.9
 06 11 2015  06 16  -14.5353 17928.7 -13566.2 -37.1138 22482.9
 06 11 2015  06 17  -14.5356 17928.7 -13566.6 -37.1146 22483.2
 06 11 2015  06 18  -14.5360 17928.7 -13566.0 -37.1134 22482.8
 06 11 2015  06 19  -14.5362 17928.8 -13566.1 -37.1134 22482.9
 06 11 2015  06 20  -14.5366 17928.9 -13565.8 -37.1127 22482.8
 06 11 2015  06 21  -14.5369 17929.0 -13565.7 -37.1124 22482.8
 06 11 2015  06 22  -14.5372 17929.0 -13565.5 -37.1120 22482.7
 06 11 2015  06 23  -14.5368 17929.1 -13566.1 -37.1128 22483.2
 06 11 2015  06 24  -14.5366 17929.3 -13565.8 -37.1122 22483.1
 06 11 2015  06 25  -14.5364 17929.3 -13565.9 -37.1122 22483.1
 06 11 2015  06 26  -14.5365 17929.1 -13565.5 -37.1117 22482.8
 06 11 2015  06 27  -14.5368 17929.2 -13565.7 -37.1120 22483.0
 06 11 2015  06 28  -14.5370 17929.0 -13566.3 -37.1137 22483.2
 06 11 2015  06 29  -14.5374 17929.0 -13565.4 -37.1117 22482.6
 06 11 2015  06 30  -14.5374 17928.7 -13565.9 -37.1132 22482.7
 06 11 2015  06 31  -14.5374 17928.6 -13565.6 -37.1126 22482.4
 06 11 2015  06 32  -14.5376 17928.3 -13565.6 -37.1131 22482.2
 06 11 2015  06 33  -14.5377 17928.0 -13565.4 -37.1133 22481.8
 06 11 2015  06 34  -14.5376 17927.8 -13565.5 -37.1138 22481.7
 06 11 2015  06 35  -14.5374 17927.5 -13565.7 -37.1145 22481.6
 06 11 2015  06 36  -14.5374 17927.3 -13565.7 -37.1149 22481.4
 06 11 2015  06 37  -14.5377 17927.2 -13565.5 -37.1148 22481.2
 06 11 2015  06 38  -14.5377 17927.4 -13565.5 -37.1144 22481.4
 06 11 2015  06 39  -14.5380 17927.4 -13565.6 -37.1145 22481.4
 06 11 2015  06 40  -14.5382 17927.4 -13565.6 -37.1146 22481.5
 06 11 2015  06 41  -14.5385 17927.4 -13565.7 -37.1148 22481.6
 06 11 2015  06 42  -14.5382 17927.4 -13565.9 -37.1151 22481.6
 06 11 2015  06 43  -14.5381 17927.3 -13565.6 -37.1147 22481.4
 06 11 2015  06 44  -14.5379 17927.3 -13566.0 -37.1154 22481.6
 06 11 2015  06 45  -14.5383 17927.4 -13565.9 -37.1152 22481.7
 06 11 2015  06 46  -14.5392 17927.3 -13565.4 -37.1142 22481.3
 06 11 2015  06 47  -14.5399 17927.5 -13565.2 -37.1136 22481.3
 06 11 2015  06 48  -14.5403 17927.4 -13565.6 -37.1146 22481.5
 06 11 2015  06 49  -14.5405 17927.5 -13565.0 -37.1131 22481.2
 06 11 2015  06 50  -14.5398 17927.4 -13565.5 -37.1144 22481.4
 06 11 2015  06 51  -14.5390 17927.5 -13565.9 -37.1151 22481.7
 06 11 2015  06 52  -14.5386 17927.6 -13565.5 -37.1140 22481.6
 06 11 2015  06 53  -14.5379 17928.0 -13565.8 -37.1142 22482.1
 06 11 2015  06 54  -14.5377 17928.0 -13565.5 -37.1134 22481.9
 06 11 2015  06 55  -14.5377 17928.1 -13565.5 -37.1133 22482.0
 06 11 2015  06 56  -14.5376 17928.1 -13565.6 -37.1136 22482.1
 06 11 2015  06 57  -14.5378 17928.2 -13565.2 -37.1126 22481.9
 06 11 2015  06 58  -14.5372 17928.5 -13565.7 -37.1132 22482.5
 06 11 2015  06 59  -14.5372 17928.6 -13565.8 -37.1132 22482.6
 06 11 2015  07 00  -14.5375 17928.8 -13566.1 -37.1134 22482.9
 06 11 2015  07 01  -14.5380 17929.2 -13565.4 -37.1115 22482.8
 06 11 2015  07 02  -14.5390 17929.8 -13565.2 -37.1099 22483.2
 06 11 2015  07 03  -14.5392 17930.2 -13565.6 -37.1102 22483.7
 06 11 2015  07 04  -14.5391 17930.6 -13565.8 -37.1101 22484.1
 06 11 2015  07 05  -14.5389 17930.9 -13565.7 -37.1094 22484.4
 06 11 2015  07 06  -14.5387 17931.1 -13565.1 -37.1078 22484.1
 06 11 2015  07 07  -14.5386 17931.0 -13565.4 -37.1085 22484.2
 06 11 2015  07 08  -14.5384 17931.0 -13565.5 -37.1088 22484.3
 06 11 2015  07 09  -14.5393 17931.1 -13565.6 -37.1088 22484.4
 06 11 2015  07 10  -14.5404 17931.1 -13565.2 -37.1081 22484.2
 06 11 2015  07 11  -14.5421 17931.1 -13565.0 -37.1077 22484.1
 06 11 2015  07 12  -14.5434 17931.2 -13565.2 -37.1079 22484.3
 06 11 2015  07 13  -14.5445 17931.3 -13565.8 -37.1089 22484.7
 06 11 2015  07 14  -14.5453 17931.2 -13564.9 -37.1074 22484.1
 06 11 2015  07 15  -14.5455 17931.1 -13564.8 -37.1071 22484.0
 06 11 2015  07 16  -14.5452 17931.1 -13565.4 -37.1084 22484.3
 06 11 2015  07 17  -14.5452 17930.9 -13564.5 -37.1070 22483.6
 06 11 2015  07 18  -14.5448 17931.1 -13564.8 -37.1071 22483.9
 06 11 2015  07 19  -14.5445 17931.1 -13564.9 -37.1073 22484.0
 06 11 2015  07 20  -14.5439 17931.2 -13564.6 -37.1066 22483.9
 06 11 2015  07 21  -14.5432 17931.4 -13564.7 -37.1067 22484.1
 06 11 2015  07 22  -14.5427 17931.4 -13565.1 -37.1073 22484.4
 06 11 2015  07 23  -14.5423 17931.5 -13564.7 -37.1065 22484.2
 06 11 2015  07 24  -14.5426 17931.4 -13564.7 -37.1067 22484.1
 06 11 2015  07 25  -14.5426 17931.5 -13564.6 -37.1062 22484.2
 06 11 2015  07 26  -14.5432 17931.7 -13565.1 -37.1070 22484.6
 06 11 2015  07 27  -14.5438 17931.9 -13564.8 -37.1061 22484.6
 06 11 2015  07 28  -14.5444 17931.9 -13564.7 -37.1057 22484.5
 06 11 2015  07 29  -14.5450 17931.9 -13564.7 -37.1058 22484.6
 06 11 2015  07 30  -14.5457 17931.9 -13564.8 -37.1061 22484.6
 06 11 2015  07 31  -14.5463 17931.9 -13565.1 -37.1067 22484.7
 06 11 2015  07 32  -14.5466 17931.9 -13564.7 -37.1057 22484.5
 06 11 2015  07 33  -14.5471 17932.0 -13564.5 -37.1054 22484.5
 06 11 2015  07 34  -14.5475 17932.1 -13564.9 -37.1060 22484.8
 06 11 2015  07 35  -14.5478 17932.3 -13564.8 -37.1053 22484.9
 06 11 2015  07 36  -14.5480 17932.5 -13564.9 -37.1053 22485.1
 06 11 2015  07 37  -14.5479 17932.7 -13564.5 -37.1041 22485.1
 06 11 2015  07 38  -14.5476 17932.8 -13564.9 -37.1048 22485.3
 06 11 2015  07 39  -14.5470 17932.8 -13564.7 -37.1044 22485.3
 06 11 2015  07 40  -14.5467 17932.8 -13564.0 -37.1030 22484.8
 06 11 2015  07 41  -14.5463 17932.6 -13564.7 -37.1048 22485.1
 06 11 2015  07 42  -14.5461 17932.7 -13564.3 -37.1038 22484.9
 06 11 2015  07 43  -14.5458 17932.7 -13565.2 -37.1056 22485.4
 06 11 2015  07 44  -14.5458 17932.8 -13563.8 -37.1027 22484.7
 06 11 2015  07 45  -14.5455 17932.8 -13564.3 -37.1037 22485.0
 06 11 2015  07 46  -14.5454 17932.8 -13564.7 -37.1044 22485.2
 06 11 2015  07 47  -14.5451 17932.9 -13564.4 -37.1037 22485.1
 06 11 2015  07 48  -14.5445 17932.8 -13564.2 -37.1035 22485.0
 06 11 2015  07 49  -14.5441 17932.6 -13564.1 -37.1035 22484.7
 06 11 2015  07 50  -14.5439 17932.6 -13564.4 -37.1041 22484.9
 06 11 2015  07 51  -14.5439 17932.5 -13564.5 -37.1046 22484.9
 06 11 2015  07 52  -14.5440 17932.4 -13564.5 -37.1046 22484.8
 06 11 2015  07 53  -14.5442 17932.4 -13564.7 -37.1050 22484.9
 06 11 2015  07 54  -14.5442 17932.5 -13564.6 -37.1046 22484.9
 06 11 2015  07 55  -14.5444 17932.4 -13564.9 -37.1054 22485.1
 06 11 2015  07 56  -14.5447 17932.5 -13564.5 -37.1045 22484.9
 06 11 2015  07 57  -14.5450 17932.5 -13563.9 -37.1032 22484.5
 06 11 2015  07 58  -14.5450 17932.3 -13564.5 -37.1049 22484.8
 06 11 2015  07 59  -14.5451 17932.3 -13564.1 -37.1041 22484.5
 06 11 2015  08 00  -14.5453 17932.2 -13564.3 -37.1045 22484.5
 06 11 2015  08 01  -14.5456 17932.2 -13565.0 -37.1061 22485.0
 06 11 2015  08 02  -14.5460 17932.1 -13564.5 -37.1051 22484.6
 06 11 2015  08 03  -14.5461 17932.2 -13564.5 -37.1051 22484.6
 06 11 2015  08 04  -14.5463 17932.1 -13564.4 -37.1049 22484.5
 06 11 2015  08 05  -14.5464 17932.0 -13564.4 -37.1050 22484.4
 06 11 2015  08 06  -14.5467 17931.9 -13564.3 -37.1050 22484.2
 06 11 2015  08 07  -14.5469 17931.8 -13564.3 -37.1051 22484.2
 06 11 2015  08 08  -14.5469 17931.8 -13564.2 -37.1050 22484.2
 06 11 2015  08 09  -14.5467 17931.6 -13564.3 -37.1053 22484.1
 06 11 2015  08 10  -14.5464 17931.4 -13564.3 -37.1058 22483.9
 06 11 2015  08 11  -14.5457 17931.3 -13564.4 -37.1062 22483.9
 06 11 2015  08 12  -14.5447 17931.3 -13564.4 -37.1062 22483.8
 06 11 2015  08 13  -14.5441 17931.0 -13564.2 -37.1062 22483.5
 06 11 2015  08 14  -14.5433 17930.7 -13563.8 -37.1058 22483.0
 06 11 2015  08 15  -14.5429 17930.5 -13564.5 -37.1077 22483.3
 06 11 2015  08 16  -14.5428 17930.3 -13564.5 -37.1079 22483.2
 06 11 2015  08 17  -14.5427 17930.3 -13564.6 -37.1082 22483.2
 06 11 2015  08 18  -14.5426 17930.4 -13564.1 -37.1069 22483.0
 06 11 2015  08 19  -14.5418 17930.6 -13564.2 -37.1069 22483.2
 06 11 2015  08 20  -14.5415 17930.7 -13564.7 -37.1075 22483.6
 06 11 2015  08 21  -14.5417 17930.8 -13564.6 -37.1072 22483.6
 06 11 2015  08 22  -14.5416 17930.8 -13564.5 -37.1071 22483.5
 06 11 2015  08 23  -14.5412 17930.6 -13564.5 -37.1074 22483.4
 06 11 2015  08 24  -14.5412 17930.3 -13564.7 -37.1083 22483.3
 06 11 2015  08 25  -14.5410 17930.2 -13564.3 -37.1077 22483.0
 06 11 2015  08 26  -14.5407 17930.1 -13564.2 -37.1077 22482.8
 06 11 2015  08 27  -14.5404 17930.0 -13564.6 -37.1086 22482.9
 06 11 2015  08 28  -14.5398 17929.8 -13564.5 -37.1087 22482.7
 06 11 2015  08 29  -14.5395 17929.7 -13564.3 -37.1085 22482.5
 06 11 2015  08 30  -14.5392 17929.6 -13564.3 -37.1086 22482.5
 06 11 2015  08 31  -14.5389 17929.5 -13564.6 -37.1095 22482.6
 06 11 2015  08 32  -14.5388 17929.4 -13564.6 -37.1093 22482.5
 06 11 2015  08 33  -14.5386 17929.5 -13564.6 -37.1093 22482.5
 06 11 2015  08 34  -14.5383 17929.5 -13565.0 -37.1101 22482.8
 06 11 2015  08 35  -14.5380 17929.7 -13564.4 -37.1086 22482.5
 06 11 2015  08 36  -14.5377 17929.6 -13564.2 -37.1084 22482.4
 06 11 2015  08 37  -14.5374 17929.6 -13565.0 -37.1100 22482.9
 06 11 2015  08 38  -14.5370 17929.6 -13565.3 -37.1105 22483.0
 06 11 2015  08 39  -14.5367 17929.6 -13565.2 -37.1104 22483.0
 06 11 2015  08 40  -14.5363 17929.6 -13565.1 -37.1101 22482.9
 06 11 2015  08 41  -14.5364 17929.6 -13565.4 -37.1108 22483.1
 06 11 2015  08 42  -14.5364 17929.7 -13565.1 -37.1100 22483.0
 06 11 2015  08 43  -14.5360 17929.8 -13565.0 -37.1098 22483.1
 06 11 2015  08 44  -14.5356 17930.2 -13564.6 -37.1082 22483.1
 06 11 2015  08 45  -14.5357 17930.3 -13564.7 -37.1083 22483.2
 06 11 2015  08 46  -14.5357 17930.4 -13565.0 -37.1088 22483.5
 06 11 2015  08 47  -14.5359 17930.6 -13565.3 -37.1089 22483.9
 06 11 2015  08 48  -14.5359 17930.8 -13565.3 -37.1089 22484.0
 06 11 2015  08 49  -14.5357 17930.9 -13565.6 -37.1093 22484.3
 06 11 2015  08 50  -14.5356 17930.9 -13565.7 -37.1093 22484.4
 06 11 2015  08 51  -14.5358 17931.1 -13564.9 -37.1075 22484.0
 06 11 2015  08 52  -14.5358 17931.1 -13565.4 -37.1086 22484.3
 06 11 2015  08 53  -14.5356 17931.3 -13565.5 -37.1083 22484.6
 06 11 2015  08 54  -14.5354 17931.5 -13565.8 -37.1088 22484.9
 06 11 2015  08 55  -14.5350 17931.6 -13565.8 -37.1087 22485.0
 06 11 2015  08 56  -14.5352 17931.6 -13565.6 -37.1082 22484.9
 06 11 2015  08 57  -14.5353 17931.9 -13565.3 -37.1072 22484.9
 06 11 2015  08 58  -14.5353 17932.0 -13565.4 -37.1071 22485.0
 06 11 2015  08 59  -14.5354 17931.8 -13565.6 -37.1079 22485.0
 06 11 2015  09 00  -14.5352 17931.9 -13565.3 -37.1070 22484.8
 06 11 2015  09 01  -14.5349 17931.7 -13565.0 -37.1067 22484.6
 06 11 2015  09 02  -14.5342 17931.9 -13565.7 -37.1077 22485.2
 06 11 2015  09 03  -14.5342 17932.0 -13565.3 -37.1069 22484.9
 06 11 2015  09 04  -14.5337 17932.1 -13565.8 -37.1077 22485.4
 06 11 2015  09 05  -14.5338 17932.3 -13565.8 -37.1076 22485.5
 06 11 2015  09 06  -14.5342 17932.5 -13565.9 -37.1073 22485.7
 06 11 2015  09 07  -14.5339 17932.6 -13565.9 -37.1073 22485.8
 06 11 2015  09 08  -14.5337 17932.7 -13566.0 -37.1073 22486.0
 06 11 2015  09 09  -14.5333 17932.6 -13566.3 -37.1080 22486.1
 06 11 2015  09 10  -14.5332 17932.6 -13566.1 -37.1076 22486.0
 06 11 2015  09 11  -14.5326 17932.7 -13566.0 -37.1073 22485.9
 06 11 2015  09 12  -14.5325 17932.7 -13565.8 -37.1067 22485.8
 06 11 2015  09 13  -14.5326 17932.7 -13566.3 -37.1079 22486.2
 06 11 2015  09 14  -14.5326 17932.9 -13566.2 -37.1075 22486.2
 06 11 2015  09 15  -14.5327 17933.0 -13566.2 -37.1072 22486.3
 06 11 2015  09 16  -14.5329 17933.1 -13566.3 -37.1074 22486.4
 06 11 2015  09 17  -14.5332 17933.1 -13566.5 -37.1077 22486.5
 06 11 2015  09 18  -14.5333 17933.2 -13566.6 -37.1078 22486.7
 06 11 2015  09 19  -14.5330 17933.2 -13566.6 -37.1078 22486.7
 06 11 2015  09 20  -14.5328 17933.2 -13566.5 -37.1075 22486.7
 06 11 2015  09 21  -14.5325 17933.4 -13566.6 -37.1075 22486.9
 06 11 2015  09 22  -14.5323 17933.5 -13567.0 -37.1080 22487.2
 06 11 2015  09 23  -14.5325 17933.8 -13567.0 -37.1077 22487.4
 06 11 2015  09 24  -14.5333 17934.1 -13567.0 -37.1073 22487.7
 06 11 2015  09 25  -14.5337 17934.1 -13567.2 -37.1074 22487.8
 06 11 2015  09 26  -14.5339 17934.2 -13567.1 -37.1072 22487.9
 06 11 2015  09 27  -14.5343 17934.3 -13567.0 -37.1069 22487.8
 06 11 2015  09 28  -14.5352 17934.4 -13567.2 -37.1071 22488.0
 06 11 2015  09 29  -14.5353 17934.5 -13567.3 -37.1071 22488.2
 06 11 2015  09 30  -14.5351 17934.6 -13567.4 -37.1072 22488.4
 06 11 2015  09 31  -14.5345 17935.0 -13567.4 -37.1066 22488.6
 06 11 2015  09 32  -14.5341 17935.6 -13567.6 -37.1062 22489.2
 06 11 2015  09 33  -14.5341 17936.1 -13567.6 -37.1053 22489.6
 06 11 2015  09 34  -14.5342 17936.5 -13567.8 -37.1051 22490.0
 06 11 2015  09 35  -14.5337 17937.0 -13567.7 -37.1041 22490.4
 06 11 2015  09 36  -14.5333 17937.4 -13568.1 -37.1042 22491.0
 06 11 2015  09 37  -14.5341 17937.9 -13568.0 -37.1032 22491.3
 06 11 2015  09 38  -14.5356 17938.3 -13568.3 -37.1033 22491.8
 06 11 2015  09 39  -14.5374 17938.5 -13567.7 -37.1017 22491.6
 06 11 2015  09 40  -14.5397 17938.8 -13567.9 -37.1019 22491.9
 06 11 2015  09 41  -14.5421 17939.0 -13568.1 -37.1018 22492.3
 06 11 2015  09 42  -14.5456 17939.5 -13567.6 -37.1000 22492.4
 06 11 2015  09 43  -14.5491 17939.8 -13567.6 -37.0995 22492.6
 06 11 2015  09 44  -14.5515 17940.1 -13567.6 -37.0991 22492.8
 06 11 2015  09 45  -14.5524 17940.1 -13567.5 -37.0989 22492.8
 06 11 2015  09 46  -14.5527 17940.4 -13567.7 -37.0990 22493.1
 06 11 2015  09 47  -14.5531 17940.5 -13567.3 -37.0978 22493.0
 06 11 2015  09 48  -14.5533 17940.8 -13567.5 -37.0979 22493.4
 06 11 2015  09 49  -14.5539 17941.1 -13567.8 -37.0980 22493.7
 06 11 2015  09 50  -14.5548 17941.4 -13567.7 -37.0975 22493.9
 06 11 2015  09 51  -14.5557 17941.5 -13567.6 -37.0968 22494.0
 06 11 2015  09 52  -14.5565 17941.8 -13567.7 -37.0967 22494.2
 06 11 2015  09 53  -14.5568 17941.8 -13568.0 -37.0973 22494.4
 06 11 2015  09 54  -14.5573 17942.0 -13567.6 -37.0963 22494.3
 06 11 2015  09 55  -14.5582 17942.0 -13567.6 -37.0961 22494.3
 06 11 2015  09 56  -14.5591 17942.1 -13567.9 -37.0967 22494.6
 06 11 2015  09 57  -14.5597 17942.3 -13568.2 -37.0969 22494.9
 06 11 2015  09 58  -14.5607 17942.3 -13567.6 -37.0957 22494.6
 06 11 2015  09 59  -14.5613 17942.4 -13567.7 -37.0958 22494.8
 06 11 2015  10 00  -14.5626 17942.6 -13567.9 -37.0959 22495.0
 06 11 2015  10 01  -14.5636 17942.5 -13567.9 -37.0959 22494.9
 06 11 2015  10 02  -14.5651 17942.7 -13567.3 -37.0945 22494.8
 06 11 2015  10 03  -14.5653 17942.9 -13568.2 -37.0962 22495.4
 06 11 2015  10 04  -14.5650 17942.9 -13567.7 -37.0951 22495.1
 06 11 2015  10 05  -14.5632 17942.6 -13567.6 -37.0953 22494.8
 06 11 2015  10 06  -14.5617 17942.2 -13567.5 -37.0956 22494.4
 06 11 2015  10 07  -14.5610 17942.1 -13567.5 -37.0959 22494.4
 06 11 2015  10 08  -14.5608 17942.1 -13567.8 -37.0964 22494.5
 06 11 2015  10 09  -14.5614 17942.0 -13567.8 -37.0967 22494.5
 06 11 2015  10 10  -14.5620 17941.7 -13567.7 -37.0970 22494.1
 06 11 2015  10 11  -14.5622 17941.2 -13567.8 -37.0977 22493.8
 06 11 2015  10 12  -14.5622 17940.9 -13567.7 -37.0981 22493.5
 06 11 2015  10 13  -14.5622 17940.9 -13567.8 -37.0982 22493.5
 06 11 2015  10 14  -14.5628 17940.9 -13568.0 -37.0986 22493.7
 06 11 2015  10 15  -14.5638 17941.1 -13567.9 -37.0982 22493.8
 06 11 2015  10 16  -14.5650 17941.1 -13568.1 -37.0986 22493.9
 06 11 2015  10 17  -14.5653 17941.1 -13568.6 -37.0996 22494.2
 06 11 2015  10 18  -14.5658 17941.3 -13568.4 -37.0988 22494.3
 06 11 2015  10 19  -14.5660 17941.4 -13568.1 -37.0981 22494.2
 06 11 2015  10 20  -14.5661 17941.4 -13568.2 -37.0983 22494.3
 06 11 2015  10 21  -14.5662 17941.4 -13568.1 -37.0982 22494.1
 06 11 2015  10 22  -14.5663 17941.3 -13567.9 -37.0980 22493.9
 06 11 2015  10 23  -14.5666 17941.3 -13568.1 -37.0983 22494.0
 06 11 2015  10 24  -14.5670 17941.4 -13568.0 -37.0980 22494.1
 06 11 2015  10 25  -14.5675 17941.3 -13567.9 -37.0978 22494.0
 06 11 2015  10 26  -14.5670 17941.2 -13568.0 -37.0983 22493.9
 06 11 2015  10 27  -14.5666 17940.8 -13568.0 -37.0989 22493.7
 06 11 2015  10 28  -14.5665 17940.6 -13567.6 -37.0983 22493.2
 06 11 2015  10 29  -14.5666 17940.4 -13568.3 -37.1002 22493.5
 06 11 2015  10 30  -14.5677 17940.4 -13567.9 -37.0991 22493.3
 06 11 2015  10 31  -14.5689 17940.7 -13567.8 -37.0986 22493.4
 06 11 2015  10 32  -14.5698 17941.1 -13568.5 -37.0995 22494.1
 06 11 2015  10 33  -14.5710 17941.3 -13568.2 -37.0984 22494.2
 06 11 2015  10 34  -14.5715 17941.2 -13567.8 -37.0978 22493.9
 06 11 2015  10 35  -14.5717 17941.3 -13567.4 -37.0969 22493.6
 06 11 2015  10 36  -14.5718 17941.3 -13567.7 -37.0974 22493.8
 06 11 2015  10 37  -14.5722 17941.4 -13567.5 -37.0968 22493.8
 06 11 2015  10 38  -14.5720 17941.4 -13567.4 -37.0967 22493.7
 06 11 2015  10 39  -14.5715 17941.6 -13567.8 -37.0974 22494.1
 06 11 2015  10 40  -14.5716 17941.9 -13567.8 -37.0967 22494.3
 06 11 2015  10 41  -14.5717 17942.1 -13567.8 -37.0964 22494.5
 06 11 2015  10 42  -14.5720 17942.8 -13568.1 -37.0960 22495.3
 06 11 2015  10 43  -14.5723 17943.3 -13567.6 -37.0941 22495.4
 06 11 2015  10 44  -14.5721 17943.3 -13567.5 -37.0941 22495.3
 06 11 2015  10 45  -14.5722 17943.1 -13567.4 -37.0942 22495.1
 06 11 2015  10 46  -14.5729 17943.5 -13567.0 -37.0927 22495.1
 06 11 2015  10 47  -14.5742 17943.8 -13567.0 -37.0924 22495.4
 06 11 2015  10 48  -14.5754 17944.1 -13566.8 -37.0913 22495.6
 06 11 2015  10 49  -14.5765 17944.6 -13566.9 -37.0907 22496.0
 06 11 2015  10 50  -14.5770 17944.8 -13566.5 -37.0896 22495.9
 06 11 2015  10 51  -14.5773 17944.9 -13566.2 -37.0889 22495.8
 06 11 2015  10 52  -14.5778 17944.8 -13566.1 -37.0888 22495.7
 06 11 2015  10 53  -14.5782 17944.9 -13566.3 -37.0889 22495.9
 06 11 2015  10 54  -14.5783 17945.3 -13566.0 -37.0879 22496.0
 06 11 2015  10 55  -14.5782 17945.6 -13565.9 -37.0872 22496.1
 06 11 2015  10 56  -14.5782 17945.5 -13565.6 -37.0868 22495.9
 06 11 2015  10 57  -14.5779 17945.6 -13565.3 -37.0859 22495.8
 06 11 2015  10 58  -14.5782 17945.6 -13565.3 -37.0861 22495.8
 06 11 2015  10 59  -14.5782 17945.5 -13564.9 -37.0853 22495.5
 06 11 2015  11 00  -14.5779 17945.4 -13565.5 -37.0867 22495.7
 06 11 2015  11 01  -14.5782 17945.0 -13564.9 -37.0862 22495.1
 06 11 2015  11 02  -14.5788 17944.6 -13565.2 -37.0874 22495.0
 06 11 2015  11 03  -14.5798 17944.4 -13564.3 -37.0857 22494.2
 06 11 2015  11 04  -14.5806 17944.3 -13564.1 -37.0856 22494.1
 06 11 2015  11 05  -14.5813 17944.3 -13564.1 -37.0854 22494.1
 06 11 2015  11 06  -14.5814 17944.4 -13564.3 -37.0858 22494.3
 06 11 2015  11 07  -14.5816 17944.5 -13564.2 -37.0855 22494.3
 06 11 2015  11 08  -14.5817 17944.5 -13563.5 -37.0841 22493.9
 06 11 2015  11 09  -14.5814 17944.8 -13564.0 -37.0846 22494.4
 06 11 2015  11 10  -14.5816 17944.9 -13563.6 -37.0836 22494.3
 06 11 2015  11 11  -14.5807 17944.9 -13563.7 -37.0837 22494.3
 06 11 2015  11 12  -14.5804 17945.0 -13563.9 -37.0841 22494.4
 06 11 2015  11 13  -14.5807 17944.9 -13563.3 -37.0831 22494.1
 06 11 2015  11 14  -14.5812 17944.8 -13562.9 -37.0823 22493.8
 06 11 2015  11 15  -14.5810 17945.2 -13562.9 -37.0817 22494.1
 06 11 2015  11 16  -14.5811 17945.3 -13562.8 -37.0813 22494.0
 06 11 2015  11 17  -14.5815 17944.9 -13562.6 -37.0815 22493.6
 06 11 2015  11 18  -14.5809 17944.9 -13562.7 -37.0817 22493.7
 06 11 2015  11 19  -14.5811 17945.1 -13562.3 -37.0807 22493.7
 06 11 2015  11 20  -14.5816 17945.5 -13562.3 -37.0800 22494.0
 06 11 2015  11 21  -14.5819 17945.7 -13562.2 -37.0795 22494.0
 06 11 2015  11 22  -14.5822 17945.8 -13561.7 -37.0784 22493.8
 06 11 2015  11 23  -14.5820 17945.8 -13561.7 -37.0783 22493.8
 06 11 2015  11 24  -14.5812 17946.0 -13561.7 -37.0781 22494.0
 06 11 2015  11 25  -14.5803 17946.2 -13561.6 -37.0775 22494.1
 06 11 2015  11 26  -14.5796 17946.4 -13561.6 -37.0773 22494.2
 06 11 2015  11 27  -14.5794 17946.5 -13561.4 -37.0766 22494.2
 06 11 2015  11 28  -14.5792 17946.8 -13561.3 -37.0761 22494.4
 06 11 2015  11 29  -14.5789 17946.8 -13561.1 -37.0755 22494.2
 06 11 2015  11 30  -14.5783 17947.0 -13560.8 -37.0747 22494.2
 06 11 2015  11 31  -14.5779 17947.1 -13561.0 -37.0749 22494.4
 06 11 2015  11 32  -14.5774 17947.6 -13560.7 -37.0735 22494.6
 06 11 2015  11 33  -14.5770 17947.9 -13560.3 -37.0724 22494.6
 06 11 2015  11 34  -14.5771 17948.0 -13560.2 -37.0718 22494.7
 06 11 2015  11 35  -14.5775 17948.3 -13559.4 -37.0698 22494.4
 06 11 2015  11 36  -14.5781 17948.8 -13559.0 -37.0684 22494.6
 06 11 2015  11 37  -14.5782 17949.3 -13558.8 -37.0671 22494.8
 06 11 2015  11 38  -14.5785 17949.5 -13558.7 -37.0666 22495.0
 06 11 2015  11 39  -14.5787 17950.2 -13559.0 -37.0661 22495.7
 06 11 2015  11 40  -14.5792 17951.3 -13559.1 -37.0647 22496.6
 06 11 2015  11 41  -14.5791 17953.2 -13558.1 -37.0598 22497.6
 06 11 2015  11 42  -14.5776 17955.0 -13558.2 -37.0570 22499.1
 06 11 2015  11 43  -14.5758 17956.3 -13557.9 -37.0546 22499.9
 06 11 2015  11 44  -14.5745 17956.9 -13557.9 -37.0537 22500.4
 06 11 2015  11 45  -14.5748 17957.1 -13557.1 -37.0518 22500.0
 06 11 2015  11 46  -14.5753 17957.6 -13556.7 -37.0501 22500.2
 06 11 2015  11 47  -14.5752 17958.0 -13556.0 -37.0480 22500.1
 06 11 2015  11 48  -14.5747 17958.4 -13555.1 -37.0456 22499.8
 06 11 2015  11 49  -14.5743 17958.7 -13555.0 -37.0451 22500.1
 06 11 2015  11 50  -14.5736 17958.7 -13554.6 -37.0440 22499.8
 06 11 2015  11 51  -14.5737 17958.4 -13554.3 -37.0441 22499.4
 06 11 2015  11 52  -14.5741 17957.8 -13553.3 -37.0429 22498.4
 06 11 2015  11 53  -14.5746 17956.8 -13553.5 -37.0449 22497.6
 06 11 2015  11 54  -14.5756 17956.0 -13553.1 -37.0452 22496.8
 06 11 2015  11 55  -14.5761 17956.0 -13552.9 -37.0449 22496.7
 06 11 2015  11 56  -14.5763 17956.1 -13552.9 -37.0447 22496.7
 06 11 2015  11 57  -14.5771 17955.8 -13552.3 -37.0439 22496.1
 06 11 2015  11 58  -14.5779 17955.1 -13552.6 -37.0456 22495.8
 06 11 2015  11 59  -14.5793 17954.4 -13552.1 -37.0458 22494.9
 06 11 2015  12 00  -14.5810 17953.7 -13551.8 -37.0460 22494.1
 06 11 2015  12 01  -14.5820 17953.3 -13551.5 -37.0461 22493.6
 06 11 2015  12 02  -14.5826 17953.1 -13551.7 -37.0470 22493.6
 06 11 2015  12 03  -14.5842 17952.8 -13551.0 -37.0459 22493.0
 06 11 2015  12 04  -14.5860 17953.0 -13551.3 -37.0463 22493.3
 06 11 2015  12 05  -14.5877 17952.3 -13551.1 -37.0469 22492.6
 06 11 2015  12 06  -14.5889 17951.7 -13551.3 -37.0481 22492.3
 06 11 2015  12 07  -14.5893 17951.5 -13551.7 -37.0491 22492.3
 06 11 2015  12 08  -14.5895 17951.9 -13550.7 -37.0467 22492.0
 06 11 2015  12 09  -14.5887 17952.5 -13551.0 -37.0464 22492.7
 06 11 2015  12 10  -14.5887 17952.9 -13550.7 -37.0453 22492.8
 06 11 2015  12 11  -14.5884 17953.2 -13550.7 -37.0446 22493.1
 06 11 2015  12 12  -14.5880 17953.4 -13551.0 -37.0450 22493.5
 06 11 2015  12 13  -14.5874 17953.8 -13551.0 -37.0443 22493.7
 06 11 2015  12 14  -14.5875 17953.9 -13550.8 -37.0437 22493.7
 06 11 2015  12 15  -14.5870 17954.3 -13550.7 -37.0429 22494.0
 06 11 2015  12 16  -14.5858 17954.8 -13550.5 -37.0418 22494.2
 06 11 2015  12 17  -14.5842 17955.1 -13549.8 -37.0398 22494.1
 06 11 2015  12 18  -14.5834 17954.5 -13550.0 -37.0412 22493.7
 06 11 2015  12 19  -14.5834 17953.8 -13549.6 -37.0416 22492.9
 06 11 2015  12 20  -14.5837 17953.4 -13549.7 -37.0422 22492.6
 06 11 2015  12 21  -14.5836 17953.6 -13549.4 -37.0415 22492.6
 06 11 2015  12 22  -14.5831 17954.3 -13549.6 -37.0408 22493.3
 06 11 2015  12 23  -14.5822 17955.3 -13549.1 -37.0381 22493.8
 06 11 2015  12 24  -14.5816 17956.1 -13549.1 -37.0370 22494.4
 06 11 2015  12 25  -14.5807 17956.3 -13549.4 -37.0373 22494.8
 06 11 2015  12 26  -14.5806 17956.0 -13548.7 -37.0364 22494.1
 06 11 2015  12 27  -14.5802 17956.2 -13548.8 -37.0363 22494.3
 06 11 2015  12 28  -14.5809 17956.0 -13548.9 -37.0368 22494.3
 06 11 2015  12 29  -14.5817 17956.0 -13548.1 -37.0351 22493.8
 06 11 2015  12 30  -14.5817 17956.3 -13548.1 -37.0346 22494.0
 06 11 2015  12 31  -14.5825 17956.1 -13547.8 -37.0344 22493.6
 06 11 2015  12 32  -14.5829 17956.1 -13547.5 -37.0337 22493.5
 06 11 2015  12 33  -14.5825 17956.2 -13547.4 -37.0334 22493.5
 06 11 2015  12 34  -14.5827 17955.7 -13547.0 -37.0333 22492.8
 06 11 2015  12 35  -14.5829 17955.4 -13547.0 -37.0338 22492.6
 06 11 2015  12 36  -14.5836 17955.5 -13547.2 -37.0341 22492.8
 06 11 2015  12 37  -14.5838 17956.2 -13547.1 -37.0328 22493.3
 06 11 2015  12 38  -14.5836 17957.0 -13547.4 -37.0321 22494.1
 06 11 2015  12 39  -14.5839 17957.6 -13546.6 -37.0295 22494.1
 06 11 2015  12 40  -14.5839 17958.2 -13546.7 -37.0288 22494.6
 06 11 2015  12 41  -14.5830 17958.8 -13546.7 -37.0279 22495.1
 06 11 2015  12 42  -14.5820 17959.7 -13546.9 -37.0268 22496.0
 06 11 2015  12 43  -14.5807 17960.6 -13546.2 -37.0241 22496.3
 06 11 2015  12 44  -14.5797 17961.2 -13545.9 -37.0226 22496.5
 06 11 2015  12 45  -14.5782 17962.0 -13545.8 -37.0212 22497.2
 06 11 2015  12 46  -14.5763 17963.0 -13546.1 -37.0202 22498.1
 06 11 2015  12 47  -14.5743 17963.9 -13546.1 -37.0189 22498.9
 06 11 2015  12 48  -14.5727 17965.0 -13545.6 -37.0163 22499.4
 06 11 2015  12 49  -14.5722 17965.1 -13545.2 -37.0152 22499.2
 06 11 2015  12 50  -14.5720 17965.2 -13544.5 -37.0136 22498.9
 06 11 2015  12 51  -14.5716 17965.5 -13544.6 -37.0133 22499.2
 06 11 2015  12 52  -14.5711 17966.5 -13544.5 -37.0117 22499.9
 06 11 2015  12 53  -14.5713 17967.0 -13543.8 -37.0095 22500.0
 06 11 2015  12 54  -14.5712 17967.5 -13543.6 -37.0082 22500.2
 06 11 2015  12 55  -14.5695 17968.2 -13543.3 -37.0066 22500.6
 06 11 2015  12 56  -14.5677 17969.0 -13543.7 -37.0063 22501.5
 06 11 2015  12 57  -14.5670 17969.4 -13543.1 -37.0043 22501.4
 06 11 2015  12 58  -14.5666 17969.7 -13543.3 -37.0043 22501.8
 06 11 2015  12 59  -14.5663 17970.2 -13543.0 -37.0029 22502.0
 06 11 2015  13 00  -14.5655 17970.9 -13541.9 -36.9996 22501.9
 06 11 2015  13 01  -14.5635 17971.5 -13542.1 -36.9990 22502.5
 06 11 2015  13 02  -14.5612 17971.9 -13542.1 -36.9985 22502.8
 06 11 2015  13 03  -14.5600 17971.9 -13541.5 -36.9973 22502.5
 06 11 2015  13 04  -14.5592 17971.7 -13541.2 -36.9970 22502.2
 06 11 2015  13 05  -14.5588 17971.8 -13541.3 -36.9971 22502.3
 06 11 2015  13 06  -14.5582 17972.0 -13540.7 -36.9955 22502.1
 06 11 2015  13 07  -14.5580 17972.2 -13540.6 -36.9949 22502.1
 06 11 2015  13 08  -14.5573 17972.5 -13541.3 -36.9961 22502.8
 06 11 2015  13 09  -14.5577 17972.5 -13540.7 -36.9948 22502.5
 06 11 2015  13 10  -14.5583 17972.1 -13540.1 -36.9942 22501.8
 06 11 2015  13 11  -14.5579 17972.2 -13540.3 -36.9943 22501.9
 06 11 2015  13 12  -14.5566 17972.7 -13539.6 -36.9923 22501.9
 06 11 2015  13 13  -14.5553 17972.9 -13540.3 -36.9933 22502.5
 06 11 2015  13 14  -14.5546 17973.3 -13540.0 -36.9921 22502.6
 06 11 2015  13 15  -14.5542 17973.6 -13539.2 -36.9900 22502.4
 06 11 2015  13 16  -14.5554 17972.8 -13539.0 -36.9908 22501.7
 06 11 2015  13 17  -14.5570 17972.2 -13539.2 -36.9920 22501.3
 06 11 2015  13 18  -14.5593 17971.7 -13538.6 -36.9917 22500.6
 06 11 2015  13 19  -14.5612 17972.1 -13538.9 -36.9917 22501.1
 06 11 2015  13 20  -14.5616 17973.2 -13539.1 -36.9905 22502.1
 06 11 2015  13 21  -14.5620 17973.9 -13539.3 -36.9897 22502.8
 06 11 2015  13 22  -14.5616 17974.7 -13538.6 -36.9871 22503.0
 06 11 2015  13 23  -14.5602 17975.5 -13538.7 -36.9862 22503.7
 06 11 2015  13 24  -14.5579 17976.8 -13538.2 -36.9830 22504.4
 06 11 2015  13 25  -14.5550 17978.2 -13539.1 -36.9826 22506.1
 06 11 2015  13 26  -14.5517 17979.5 -13538.3 -36.9790 22506.6
 06 11 2015  13 27  -14.5474 17980.8 -13538.5 -36.9775 22507.8
 06 11 2015  13 28  -14.5453 17980.7 -13537.9 -36.9765 22507.3
 06 11 2015  13 29  -14.5437 17980.6 -13537.9 -36.9765 22507.3
 06 11 2015  13 30  -14.5430 17980.2 -13537.5 -36.9765 22506.7
 06 11 2015  13 31  -14.5422 17980.1 -13537.5 -36.9767 22506.6
 06 11 2015  14 21  -14.5568 17972.5 -13536.8 -36.9867 22500.2
 06 11 2015  14 22  -14.5576 17972.3 -13535.9 -36.9853 22499.4
 06 11 2015  14 23  -14.5585 17972.2 -13536.9 -36.9875 22499.9
 06 11 2015  14 24  -14.5580 17972.9 -13536.5 -36.9855 22500.2
 06 11 2015  14 25  -14.5575 17973.5 -13537.2 -36.9862 22501.2
 06 11 2015  14 26  -14.5559 17974.2 -13536.7 -36.9840 22501.4
 06 11 2015  14 27  -14.5539 17974.8 -13536.6 -36.9829 22501.8
 06 11 2015  14 28  -14.5518 17975.2 -13537.1 -36.9834 22502.5
 06 11 2015  14 29  -14.5507 17975.4 -13537.1 -36.9830 22502.6
 06 11 2015  14 30  -14.5500 17975.4 -13537.1 -36.9830 22502.6
 06 11 2015  14 31  -14.5498 17975.2 -13537.0 -36.9831 22502.4
 06 11 2015  14 32  -14.5498 17975.2 -13537.1 -36.9833 22502.5
 06 11 2015  14 33  -14.5491 17975.5 -13537.5 -36.9836 22502.9
 06 11 2015  14 34  -14.5479 17975.9 -13537.8 -36.9836 22503.4
 06 11 2015  14 35  -14.5472 17976.5 -13537.6 -36.9823 22503.8
 06 11 2015  14 36  -14.5466 17976.6 -13537.9 -36.9826 22504.1
 06 11 2015  14 37  -14.5455 17977.4 -13537.2 -36.9802 22504.3
 06 11 2015  14 38  -14.5438 17977.9 -13538.1 -36.9811 22505.2
 06 11 2015  14 39  -14.5408 17979.2 -13538.3 -36.9797 22506.4
 06 11 2015  14 40  -14.5372 17980.4 -13538.5 -36.9781 22507.5
 06 11 2015  14 41  -14.5350 17980.6 -13538.4 -36.9777 22507.6
 06 11 2015  14 42  -14.5336 17980.2 -13538.6 -36.9786 22507.4
 06 11 2015  14 43  -14.5315 17980.3 -13538.6 -36.9784 22507.4
 06 11 2015  14 44  -14.5291 17980.4 -13538.8 -36.9786 22507.6
 06 11 2015  14 45  -14.5264 17981.1 -13539.2 -36.9785 22508.4
 06 11 2015  14 46  -14.5230 17981.9 -13539.2 -36.9774 22509.1
 06 11 2015  14 47  -14.5215 17982.1 -13539.7 -36.9779 22509.5
 06 11 2015  14 48  -14.5198 17982.5 -13540.0 -36.9780 22510.1
 06 11 2015  14 49  -14.5162 17983.5 -13540.2 -36.9770 22510.9
 06 11 2015  14 50  -14.5117 17984.5 -13540.5 -36.9761 22512.0
 06 11 2015  14 51  -14.5085 17985.2 -13540.7 -36.9753 22512.7
 06 11 2015  14 52  -14.5065 17985.4 -13540.8 -36.9751 22512.8
 06 11 2015  14 53  -14.5061 17984.8 -13540.7 -36.9759 22512.2
 06 11 2015  14 54  -14.5072 17984.1 -13540.8 -36.9773 22511.8
 06 11 2015  14 55  -14.5091 17983.1 -13540.6 -36.9784 22510.9
 06 11 2015  14 56  -14.5100 17983.1 -13540.9 -36.9789 22511.1
 06 11 2015  14 57  -14.5111 17983.2 -13541.0 -36.9790 22511.2
 06 11 2015  14 58  -14.5113 17983.5 -13541.3 -36.9792 22511.6
 06 11 2015  14 59  -14.5119 17983.2 -13541.6 -36.9800 22511.6
 06 11 2015  15 00  -14.5127 17982.8 -13541.3 -36.9801 22511.1
 06 11 2015  15 01  -14.5135 17982.2 -13541.2 -36.9808 22510.5
 06 11 2015  15 02  -14.5141 17982.0 -13541.6 -36.9820 22510.6
 06 11 2015  15 03  -14.5152 17981.8 -13542.3 -36.9837 22510.9
 06 11 2015  15 04  -14.5172 17981.4 -13542.1 -36.9839 22510.4
 06 11 2015  15 05  -14.5187 17981.2 -13541.8 -36.9836 22510.1
 06 11 2015  15 06  -14.5196 17980.9 -13542.0 -36.9844 22510.0
 06 11 2015  15 07  -14.5185 17981.4 -13542.6 -36.9851 22510.7
 06 11 2015  15 08  -14.5184 17981.2 -13542.6 -36.9853 22510.6
 06 11 2015  15 09  -14.5193 17980.9 -13542.4 -36.9854 22510.2
 06 11 2015  15 10  -14.5210 17980.2 -13542.8 -36.9874 22509.9
 06 11 2015  15 11  -14.5221 17979.6 -13542.9 -36.9882 22509.5
 06 11 2015  15 12  -14.5229 17979.5 -13542.8 -36.9883 22509.3
 06 11 2015  15 13  -14.5240 17979.1 -13543.0 -36.9892 22509.1
 06 11 2015  15 14  -14.5247 17978.9 -13543.0 -36.9897 22509.0
 06 11 2015  15 15  -14.5256 17978.5 -13543.1 -36.9904 22508.7
 06 11 2015  15 16  -14.5261 17978.2 -13543.0 -36.9907 22508.5
 06 11 2015  15 17  -14.5263 17977.9 -13543.0 -36.9911 22508.1
 06 11 2015  15 18  -14.5269 17977.3 -13542.7 -36.9915 22507.5
 06 11 2015  15 19  -14.5272 17976.9 -13543.7 -36.9940 22507.8
 06 11 2015  15 20  -14.5288 17976.7 -13543.4 -36.9937 22507.5
 06 11 2015  15 21  -14.5283 17977.1 -13544.0 -36.9944 22508.2
 06 11 2015  15 22  -14.5259 17977.7 -13543.8 -36.9930 22508.5
 06 11 2015  15 23  -14.5226 17978.2 -13543.5 -36.9919 22508.7
 06 11 2015  15 24  -14.5202 17977.9 -13543.6 -36.9925 22508.5
 06 11 2015  15 25  -14.5188 17977.4 -13543.5 -36.9928 22508.1
 06 11 2015  15 26  -14.5180 17977.0 -13543.7 -36.9939 22507.9
 06 11 2015  15 27  -14.5169 17976.8 -13543.8 -36.9944 22507.8
 06 11 2015  15 28  -14.5163 17976.6 -13544.2 -36.9955 22507.8
 06 11 2015  15 29  -14.5172 17975.8 -13543.5 -36.9953 22506.8
 06 11 2015  15 30  -14.5180 17975.4 -13544.1 -36.9971 22506.8
 06 11 2015  15 31  -14.5183 17975.3 -13543.8 -36.9966 22506.6
 06 11 2015  15 32  -14.5183 17975.2 -13544.2 -36.9978 22506.8
 06 11 2015  15 33  -14.5175 17975.4 -13544.6 -36.9982 22507.1
 06 11 2015  15 34  -14.5168 17975.4 -13544.4 -36.9977 22507.0
 06 11 2015  15 35  -14.5170 17974.8 -13544.9 -36.9996 22506.8
 06 11 2015  15 36  -14.5168 17975.0 -13544.8 -36.9992 22506.9
 06 11 2015  15 37  -14.5167 17975.0 -13544.5 -36.9987 22506.8
 06 11 2015  15 38  -14.5167 17975.1 -13544.8 -36.9990 22507.0
 06 11 2015  15 39  -14.5174 17974.8 -13544.6 -36.9992 22506.6
 06 11 2015  15 40  -14.5172 17974.7 -13544.6 -36.9993 22506.5
 06 11 2015  15 41  -14.5158 17975.0 -13545.0 -36.9996 22507.0
 06 11 2015  15 42  -14.5143 17974.9 -13545.3 -37.0004 22507.2
 06 11 2015  15 43  -14.5135 17974.5 -13544.7 -36.9999 22506.4
 06 11 2015  15 44  -14.5128 17974.1 -13545.1 -37.0013 22506.4
 06 11 2015  15 45  -14.5127 17973.5 -13545.4 -37.0027 22506.1
 06 11 2015  15 46  -14.5125 17973.2 -13545.3 -37.0030 22505.7
 06 11 2015  15 47  -14.5111 17973.2 -13545.3 -37.0029 22505.8
 06 11 2015  15 48  -14.5096 17973.1 -13545.4 -37.0035 22505.8
 06 11 2015  15 49  -14.5085 17972.7 -13546.0 -37.0052 22505.9
 06 11 2015  15 50  -14.5083 17972.1 -13546.1 -37.0063 22505.4
 06 11 2015  15 51  -14.5087 17971.8 -13545.9 -37.0064 22505.1
 06 11 2015  15 52  -14.5094 17971.1 -13546.5 -37.0087 22504.8
 06 11 2015  15 53  -14.5094 17971.0 -13546.4 -37.0087 22504.7
 06 11 2015  15 54  -14.5086 17970.9 -13546.8 -37.0095 22504.9
 06 11 2015  15 55  -14.5070 17971.4 -13546.8 -37.0088 22505.2
 06 11 2015  15 56  -14.5045 17971.9 -13547.0 -37.0085 22505.8
 06 11 2015  15 57  -14.5005 17972.6 -13547.5 -37.0083 22506.7
 06 11 2015  15 58  -14.4973 17972.9 -13547.4 -37.0078 22506.9
 06 11 2015  15 59  -14.4934 17973.4 -13547.8 -37.0077 22507.5
 06 11 2015  16 00  -14.4895 17973.7 -13547.9 -37.0075 22507.8
 06 11 2015  16 01  -14.4869 17973.8 -13548.0 -37.0077 22507.9
 06 11 2015  16 02  -14.4843 17974.2 -13548.2 -37.0073 22508.3
 06 11 2015  16 03  -14.4816 17974.7 -13548.4 -37.0070 22508.9
 06 11 2015  16 04  -14.4784 17975.3 -13548.6 -37.0065 22509.4
 06 11 2015  16 05  -14.4770 17975.0 -13548.6 -37.0070 22509.2
 06 11 2015  16 06  -14.4759 17975.1 -13548.6 -37.0069 22509.3
 06 11 2015  16 07  -14.4757 17975.1 -13548.7 -37.0071 22509.3
 06 11 2015  16 08  -14.4754 17975.0 -13548.6 -37.0069 22509.2
 06 11 2015  16 09  -14.4761 17974.7 -13548.7 -37.0076 22509.0
 06 11 2015  16 10  -14.4752 17974.6 -13548.3 -37.0070 22508.7
 06 11 2015  16 11  -14.4751 17973.8 -13548.7 -37.0089 22508.3
 06 11 2015  16 12  -14.4757 17973.3 -13548.6 -37.0097 22507.9
 06 11 2015  16 13  -14.4763 17972.8 -13548.1 -37.0094 22507.1
 06 11 2015  16 14  -14.4762 17972.7 -13548.7 -37.0107 22507.4
 06 11 2015  16 15  -14.4757 17973.1 -13548.7 -37.0101 22507.8
 06 11 2015  16 16  -14.4749 17973.7 -13548.6 -37.0090 22508.2
 06 11 2015  16 17  -14.4744 17973.8 -13548.7 -37.0091 22508.4
 06 11 2015  16 18  -14.4741 17973.9 -13548.6 -37.0085 22508.4
 06 11 2015  16 19  -14.4731 17974.0 -13548.6 -37.0085 22508.5
 06 11 2015  16 20  -14.4708 17974.4 -13548.9 -37.0084 22508.9
 06 11 2015  16 21  -14.4675 17974.6 -13548.8 -37.0079 22509.0
 06 11 2015  16 22  -14.4648 17974.6 -13548.4 -37.0071 22508.8
 06 11 2015  16 23  -14.4615 17975.0 -13548.9 -37.0077 22509.4
 06 11 2015  16 24  -14.4588 17975.1 -13549.4 -37.0084 22509.8
 06 11 2015  16 25  -14.4581 17974.7 -13549.3 -37.0089 22509.4
 06 11 2015  16 26  -14.4589 17974.2 -13549.4 -37.0099 22509.0
 06 11 2015  16 27  -14.4604 17973.9 -13548.8 -37.0092 22508.5
 06 11 2015  16 28  -14.4603 17974.0 -13549.0 -37.0093 22508.6
 06 11 2015  16 29  -14.4604 17973.9 -13549.2 -37.0099 22508.7
 06 11 2015  16 30  -14.4613 17973.7 -13548.8 -37.0093 22508.3
 06 11 2015  16 31  -14.4618 17973.4 -13548.9 -37.0101 22508.1
 06 11 2015  16 32  -14.4632 17972.9 -13548.6 -37.0102 22507.5
 06 11 2015  16 33  -14.4643 17972.5 -13549.3 -37.0122 22507.7
 06 11 2015  16 34  -14.4649 17972.5 -13549.0 -37.0116 22507.4
 06 11 2015  16 35  -14.4635 17972.8 -13548.8 -37.0107 22507.5
 06 11 2015  16 36  -14.4615 17973.3 -13549.1 -37.0106 22508.1
 06 11 2015  16 37  -14.4602 17973.0 -13549.1 -37.0110 22508.0
 06 11 2015  16 38  -14.4595 17972.9 -13548.9 -37.0108 22507.7
 06 11 2015  16 39  -14.4587 17972.4 -13549.0 -37.0118 22507.4
 06 11 2015  16 40  -14.4580 17972.0 -13549.2 -37.0127 22507.2
 06 11 2015  16 41  -14.4575 17971.5 -13548.8 -37.0126 22506.6
 06 11 2015  16 42  -14.4576 17971.3 -13549.1 -37.0136 22506.6
 06 11 2015  16 43  -14.4577 17971.2 -13548.8 -37.0131 22506.3
 06 11 2015  16 44  -14.4569 17970.9 -13548.9 -37.0139 22506.2
 06 11 2015  16 45  -14.4552 17970.6 -13549.7 -37.0159 22506.3
 06 11 2015  16 46  -14.4531 17970.6 -13549.0 -37.0146 22505.9
 06 11 2015  16 47  -14.4509 17970.5 -13549.1 -37.0150 22505.9
 06 11 2015  16 48  -14.4493 17970.5 -13549.8 -37.0164 22506.3
 06 11 2015  16 49  -14.4490 17970.1 -13549.8 -37.0169 22506.0
 06 11 2015  16 50  -14.4485 17969.8 -13549.8 -37.0173 22505.8
 06 11 2015  16 51  -14.4463 17970.1 -13549.4 -37.0161 22505.8
 06 11 2015  16 52  -14.4429 17970.6 -13549.6 -37.0157 22506.3
 06 11 2015  16 53  -14.4403 17970.6 -13550.6 -37.0177 22506.9
 06 11 2015  16 54  -14.4372 17970.7 -13550.7 -37.0179 22507.0
 06 11 2015  16 55  -14.4355 17970.3 -13550.7 -37.0184 22506.7
 06 11 2015  16 56  -14.4342 17969.8 -13550.2 -37.0181 22506.0
 06 11 2015  16 57  -14.4339 17968.5 -13550.8 -37.0214 22505.4
 06 11 2015  16 58  -14.4335 17967.2 -13549.9 -37.0216 22503.8
 06 11 2015  16 59  -14.4336 17966.1 -13550.1 -37.0236 22503.0
 06 11 2015  17 00  -14.4338 17965.0 -13550.2 -37.0255 22502.2
 06 11 2015  17 01  -14.4325 17964.5 -13551.1 -37.0281 22502.4
 06 11 2015  17 02  -14.4314 17963.8 -13550.4 -37.0277 22501.4
 06 11 2015  17 03  -14.4335 17962.5 -13550.3 -37.0295 22500.3
 06 11 2015  17 04  -14.4384 17960.8 -13550.1 -37.0318 22498.8
 06 11 2015  17 05  -14.4430 17959.4 -13550.2 -37.0342 22497.8
 06 11 2015  17 06  -14.4474 17958.2 -13550.7 -37.0368 22497.1
 06 11 2015  17 07  -14.4495 17957.6 -13551.0 -37.0384 22496.8
 06 11 2015  17 08  -14.4510 17957.1 -13550.8 -37.0389 22496.3
 06 11 2015  17 09  -14.4528 17956.6 -13550.8 -37.0396 22495.8
 06 11 2015  17 10  -14.4547 17955.8 -13551.3 -37.0418 22495.5
 06 11 2015  17 11  -14.4569 17955.2 -13550.7 -37.0417 22494.6
 06 11 2015  17 12  -14.4584 17955.0 -13551.3 -37.0431 22494.9
 06 11 2015  17 13  -14.4587 17955.1 -13551.6 -37.0436 22495.2
 06 11 2015  17 14  -14.4588 17955.0 -13551.5 -37.0436 22495.0
 06 11 2015  17 15  -14.4582 17955.0 -13551.8 -37.0441 22495.2
 06 11 2015  17 16  -14.4582 17954.9 -13552.0 -37.0447 22495.2
 06 11 2015  17 17  -14.4578 17955.1 -13551.8 -37.0440 22495.3
 06 11 2015  17 18  -14.4575 17954.9 -13551.9 -37.0445 22495.2
 06 11 2015  17 19  -14.4566 17954.8 -13552.6 -37.0461 22495.5
 06 11 2015  17 20  -14.4562 17954.3 -13552.3 -37.0462 22494.9
 06 11 2015  17 21  -14.4566 17954.1 -13552.3 -37.0464 22494.8
 06 11 2015  17 22  -14.4571 17954.0 -13552.0 -37.0461 22494.5
 06 11 2015  17 23  -14.4567 17954.0 -13552.6 -37.0474 22494.8
 06 11 2015  17 24  -14.4555 17953.5 -13552.2 -37.0471 22494.2
 06 11 2015  17 25  -14.4554 17952.7 -13552.2 -37.0485 22493.6
 06 11 2015  17 26  -14.4564 17952.1 -13552.9 -37.0508 22493.6
 06 11 2015  17 27  -14.4570 17951.3 -13552.5 -37.0514 22492.7
 06 11 2015  17 28  -14.4576 17950.7 -13553.1 -37.0534 22492.5
 06 11 2015  17 29  -14.4586 17950.1 -13552.7 -37.0535 22491.9
 06 11 2015  17 30  -14.4596 17949.5 -13553.2 -37.0554 22491.6
 06 11 2015  17 31  -14.4589 17949.3 -13553.3 -37.0559 22491.5
 06 11 2015  17 32  -14.4584 17949.0 -13553.0 -37.0559 22491.1
 06 11 2015  17 33  -14.4580 17948.8 -13553.3 -37.0568 22491.1
 06 11 2015  17 34  -14.4578 17948.3 -13554.1 -37.0590 22491.2
 06 11 2015  17 35  -14.4591 17947.5 -13553.9 -37.0599 22490.4
 06 11 2015  17 36  -14.4617 17946.4 -13553.2 -37.0602 22489.2
 06 11 2015  17 37  -14.4629 17945.7 -13553.6 -37.0620 22488.9
 06 11 2015  17 38  -14.4629 17945.3 -13554.1 -37.0638 22488.8
 06 11 2015  17 39  -14.4636 17944.9 -13553.4 -37.0630 22488.1
 06 11 2015  17 40  -14.4634 17944.8 -13554.2 -37.0647 22488.4
 06 11 2015  17 41  -14.4630 17944.4 -13554.6 -37.0659 22488.4
 06 11 2015  17 42  -14.4640 17943.7 -13554.3 -37.0667 22487.7
 06 11 2015  17 43  -14.4647 17943.3 -13554.2 -37.0669 22487.3
 06 11 2015  17 44  -14.4645 17943.0 -13554.8 -37.0687 22487.5
 06 11 2015  17 45  -14.4659 17942.5 -13554.4 -37.0686 22486.7
 06 11 2015  17 46  -14.4666 17942.1 -13554.9 -37.0702 22486.8
 06 11 2015  17 47  -14.4664 17941.9 -13555.2 -37.0712 22486.7
 06 11 2015  17 48  -14.4671 17941.7 -13554.7 -37.0704 22486.3
 06 11 2015  17 49  -14.4662 17941.9 -13555.4 -37.0715 22486.9
 06 11 2015  17 50  -14.4653 17942.1 -13555.5 -37.0715 22487.1
 06 11 2015  17 51  -14.4651 17942.2 -13555.3 -37.0709 22487.1
 06 11 2015  17 52  -14.4655 17941.8 -13555.3 -37.0714 22486.8
 06 11 2015  17 53  -14.4655 17941.9 -13555.4 -37.0716 22486.9
 06 11 2015  17 54  -14.4658 17942.0 -13555.5 -37.0715 22487.0
 06 11 2015  17 55  -14.4652 17942.4 -13555.4 -37.0708 22487.4
 06 11 2015  17 56  -14.4643 17942.7 -13555.5 -37.0705 22487.6
 06 11 2015  17 57  -14.4642 17942.8 -13555.6 -37.0706 22487.8
 06 11 2015  17 58  -14.4640 17943.1 -13555.7 -37.0703 22488.0
 06 11 2015  17 59  -14.4634 17943.4 -13555.7 -37.0699 22488.3
 06 11 2015  18 00  -14.4633 17943.7 -13555.8 -37.0696 22488.5
 06 11 2015  18 01  -14.4630 17943.9 -13555.8 -37.0694 22488.7
 06 11 2015  18 02  -14.4626 17943.8 -13556.1 -37.0700 22488.8
 06 11 2015  18 03  -14.4635 17943.5 -13556.1 -37.0705 22488.5
 06 11 2015  18 04  -14.4640 17943.6 -13556.0 -37.0702 22488.6
 06 11 2015  18 05  -14.4645 17943.7 -13555.6 -37.0693 22488.4
 06 11 2015  18 06  -14.4656 17943.4 -13555.6 -37.0698 22488.2
 06 11 2015  18 07  -14.4661 17943.4 -13556.1 -37.0707 22488.5
 06 11 2015  18 08  -14.4669 17943.2 -13555.9 -37.0706 22488.2
 06 11 2015  18 09  -14.4677 17943.1 -13556.0 -37.0709 22488.2
 06 11 2015  18 10  -14.4684 17943.2 -13556.0 -37.0707 22488.3
 06 11 2015  18 11  -14.4684 17943.1 -13556.1 -37.0711 22488.2
 06 11 2015  18 12  -14.4692 17943.1 -13556.1 -37.0712 22488.3
 06 11 2015  18 13  -14.4708 17943.1 -13556.1 -37.0712 22488.3
 06 11 2015  18 14  -14.4711 17943.3 -13556.3 -37.0711 22488.6
 06 11 2015  18 15  -14.4707 17943.6 -13556.5 -37.0711 22488.9
 06 11 2015  18 16  -14.4698 17944.0 -13556.4 -37.0704 22489.2
 06 11 2015  18 17  -14.4684 17944.7 -13556.7 -37.0699 22490.0
 06 11 2015  18 18  -14.4703 17945.0 -13556.7 -37.0696 22490.2
 06 11 2015  18 19  -14.4658 17961.4 -13559.8 -37.0506 22505.2
 06 11 2015  18 20  -14.4396 17968.9 -13560.3 -37.0401 22511.4
 06 11 2015  18 21  -14.4161 17981.3 -13561.7 -37.0239 22522.2
 06 11 2015  18 22  -14.4023 17984.0 -13560.5 -37.0173 22523.6
 06 11 2015  18 23  -14.3968 17979.3 -13558.2 -37.0199 22518.4
 06 11 2015  18 24  -14.4231 17963.1 -13553.8 -37.0357 22502.9
 06 11 2015  18 25  -14.4453 17957.2 -13552.6 -37.0423 22497.4
 06 11 2015  18 26  -14.4523 17954.6 -13552.7 -37.0467 22495.4
 06 11 2015  18 27  -14.4514 17954.4 -13553.4 -37.0483 22495.7
 06 11 2015  18 28  -14.4538 17954.2 -13554.2 -37.0502 22496.0
 06 11 2015  18 29  -14.4551 17955.9 -13555.1 -37.0495 22497.9
 06 11 2015  18 30  -14.4524 17957.4 -13555.7 -37.0483 22499.4
 06 11 2015  18 31  -14.4522 17957.8 -13555.6 -37.0475 22499.7
 06 11 2015  18 32  -14.4448 17960.3 -13556.2 -37.0449 22502.0
 06 11 2015  18 33  -14.4350 17961.3 -13556.5 -37.0440 22503.0
 06 11 2015  18 34  -14.4294 17961.5 -13556.7 -37.0441 22503.3
 06 11 2015  18 35  -14.4286 17961.9 -13556.9 -37.0440 22503.7
 06 11 2015  18 36  -14.4225 17963.5 -13557.6 -37.0428 22505.5
 06 11 2015  18 37  -14.4155 17964.9 -13557.6 -37.0406 22506.6
 06 11 2015  18 38  -14.4119 17965.1 -13557.2 -37.0396 22506.5
 06 11 2015  18 39  -14.4115 17965.3 -13557.4 -37.0397 22506.8
 06 11 2015  18 40  -14.4114 17967.4 -13558.2 -37.0382 22509.0
 06 11 2015  18 41  -14.4057 17969.3 -13557.6 -37.0339 22510.1
 06 11 2015  18 42  -14.4033 17970.1 -13557.6 -37.0328 22510.7
 06 11 2015  18 43  -14.4025 17969.8 -13557.5 -37.0329 22510.5
 06 11 2015  18 44  -14.4054 17967.2 -13557.1 -37.0361 22508.1
 06 11 2015  18 45  -14.4145 17958.2 -13554.6 -37.0450 22499.4
 06 11 2015  18 46  -14.4330 17950.7 -13553.9 -37.0550 22493.0
 06 11 2015  18 47  -14.4533 17945.2 -13553.1 -37.0619 22488.2
 06 11 2015  18 48  -14.4604 17944.7 -13553.3 -37.0630 22487.9
 06 11 2015  18 49  -14.4649 17945.0 -13554.6 -37.0652 22488.8
 06 11 2015  18 50  -14.4683 17945.1 -13554.9 -37.0655 22489.1
 06 11 2015  18 51  -14.4718 17945.4 -13555.2 -37.0658 22489.5
 06 11 2015  18 52  -14.4755 17946.0 -13555.0 -37.0644 22489.9
 06 11 2015  18 53  -14.4772 17946.3 -13555.4 -37.0649 22490.4
 06 11 2015  18 54  -14.4759 17947.2 -13555.3 -37.0631 22491.1
 06 11 2015  18 55  -14.4750 17947.7 -13555.0 -37.0619 22491.3
 06 11 2015  18 56  -14.4721 17948.4 -13555.2 -37.0612 22491.9
 06 11 2015  18 57  -14.4698 17949.6 -13555.5 -37.0598 22493.1
 06 11 2015  18 58  -14.4668 17949.8 -13555.5 -37.0595 22493.3
 06 11 2015  18 59  -14.4663 17949.4 -13555.3 -37.0598 22492.8
 06 11 2015  19 00  -14.4650 17950.0 -13555.4 -37.0593 22493.3
 06 11 2015  19 01  -14.4624 17950.1 -13555.4 -37.0589 22493.4
 06 11 2015  19 02  -14.4607 17951.4 -13556.1 -37.0582 22494.9
 06 11 2015  19 03  -14.4569 17952.2 -13556.6 -37.0582 22495.8
 06 11 2015  19 04  -14.4527 17955.8 -13557.9 -37.0552 22499.5
 06 11 2015  19 05  -14.4449 17959.7 -13558.8 -37.0512 22503.1
 06 11 2015  19 06  -14.4366 17959.5 -13558.9 -37.0516 22503.1
 06 11 2015  19 07  -14.4378 17953.9 -13557.7 -37.0579 22497.8
 06 11 2015  19 08  -14.4527 17949.2 -13556.9 -37.0634 22493.7
 06 11 2015  19 09  -14.4571 17957.8 -13558.3 -37.0531 22501.3
 06 11 2015  19 10  -14.4508 17954.4 -13557.1 -37.0558 22497.9
 06 11 2015  19 11  -14.4612 17950.2 -13555.5 -37.0591 22493.6
 06 11 2015  19 12  -14.4660 17947.8 -13555.2 -37.0622 22491.5
 06 11 2015  19 13  -14.4707 17947.5 -13554.9 -37.0619 22491.0
 06 11 2015  19 14  -14.4736 17947.5 -13556.0 -37.0643 22491.7
 06 11 2015  19 15  -14.4773 17947.6 -13555.6 -37.0632 22491.6
 06 11 2015  19 16  -14.4792 17947.9 -13555.2 -37.0619 22491.5
 06 11 2015  19 17  -14.4799 17948.5 -13555.6 -37.0618 22492.3
 06 11 2015  19 18  -14.4799 17948.3 -13555.1 -37.0611 22491.8
 06 11 2015  19 19  -14.4789 17949.0 -13555.8 -37.0614 22492.8
 06 11 2015  19 20  -14.4773 17949.3 -13555.7 -37.0608 22493.0
 06 11 2015  19 21  -14.4766 17949.9 -13555.4 -37.0593 22493.3
 06 11 2015  19 22  -14.4748 17950.4 -13555.7 -37.0591 22493.8
 06 11 2015  19 23  -14.4752 17950.7 -13555.7 -37.0586 22494.0
 06 11 2015  19 24  -14.4733 17951.6 -13555.6 -37.0570 22494.8
 06 11 2015  19 25  -14.4729 17951.4 -13555.1 -37.0562 22494.3
 06 11 2015  19 26  -14.4720 17949.9 -13555.3 -37.0591 22493.2
 06 11 2015  19 27  -14.4755 17949.0 -13554.5 -37.0589 22492.0
 06 11 2015  19 28  -14.4768 17949.3 -13554.8 -37.0589 22492.4
 06 11 2015  19 29  -14.4762 17948.5 -13555.1 -37.0608 22492.0
 06 11 2015  19 30  -14.4784 17948.2 -13555.4 -37.0618 22491.9
 06 11 2015  19 31  -14.4793 17948.4 -13555.1 -37.0610 22491.9
 06 11 2015  19 32  -14.4808 17947.7 -13555.2 -37.0623 22491.4
 06 11 2015  19 33  -14.4813 17947.9 -13555.3 -37.0621 22491.6
 06 11 2015  19 34  -14.4815 17947.3 -13555.2 -37.0629 22491.1
 06 11 2015  19 35  -14.4842 17946.3 -13555.0 -37.0640 22490.2
 06 11 2015  19 36  -14.4864 17945.6 -13554.9 -37.0647 22489.6
 06 11 2015  19 37  -14.4882 17945.5 -13554.9 -37.0650 22489.5
 06 11 2015  19 38  -14.4868 17945.6 -13555.2 -37.0654 22489.7
 06 11 2015  19 39  -14.4852 17945.7 -13555.3 -37.0655 22489.9
 06 11 2015  19 40  -14.4831 17947.1 -13555.5 -37.0637 22491.1
 06 11 2015  19 41  -14.4828 17946.9 -13556.1 -37.0653 22491.3
 06 11 2015  19 42  -14.4836 17947.0 -13555.6 -37.0643 22491.1
 06 11 2015  19 43  -14.4819 17947.7 -13555.6 -37.0631 22491.6
 06 11 2015  19 44  -14.4830 17949.0 -13555.9 -37.0617 22492.9
 06 11 2015  19 45  -14.4828 17949.5 -13555.9 -37.0609 22493.3
 06 11 2015  19 46  -14.4841 17950.0 -13556.1 -37.0605 22493.8
 06 11 2015  19 47  -14.4845 17952.9 -13555.9 -37.0558 22496.0
 06 11 2015  19 48  -14.4768 17953.6 -13555.9 -37.0545 22496.5
 06 11 2015  19 49  -14.4719 17957.2 -13556.1 -37.0495 22499.6
 06 11 2015  19 50  -14.4664 17959.3 -13556.8 -37.0476 22501.6
 06 11 2015  19 51  -14.4621 17959.9 -13556.8 -37.0467 22502.1
 06 11 2015  19 52  -14.4555 17959.2 -13556.3 -37.0469 22501.2
 06 11 2015  19 53  -14.4559 17954.7 -13555.3 -37.0517 22497.1
 06 11 2015  19 54  -14.4574 17954.3 -13555.3 -37.0524 22496.7
 06 11 2015  19 55  -14.4549 17953.2 -13555.7 -37.0547 22496.1
 06 11 2015  19 56  -14.4524 17954.0 -13556.4 -37.0550 22497.2
 06 11 2015  19 57  -14.4470 17959.4 -13558.1 -37.0502 22502.5
 06 11 2015  19 58  -14.4349 17962.0 -13558.8 -37.0477 22505.0
 06 11 2015  19 59  -14.4275 17965.6 -13559.6 -37.0438 22508.4
 06 11 2015  20 00  -14.4219 17964.3 -13559.1 -37.0446 22507.0
 06 11 2015  20 01  -14.4187 17963.2 -13558.8 -37.0458 22506.0
 06 11 2015  20 02  -14.4184 17960.0 -13558.5 -37.0500 22503.2
 06 11 2015  20 03  -14.4191 17957.8 -13558.5 -37.0536 22501.5
 06 11 2015  20 04  -14.4288 17950.0 -13557.5 -37.0635 22494.6
 06 11 2015  20 05  -14.4369 17947.1 -13557.8 -37.0684 22492.5
 06 11 2015  20 06  -14.4500 17943.3 -13557.8 -37.0742 22489.5
 06 11 2015  20 07  -14.4514 17943.1 -13558.5 -37.0760 22489.7
 06 11 2015  20 08  -14.4518 17941.7 -13559.2 -37.0796 22489.0
 06 11 2015  20 09  -14.4531 17942.9 -13560.1 -37.0796 22490.5
 06 11 2015  20 10  -14.4420 17946.4 -13561.4 -37.0769 22494.1
 06 11 2015  20 11  -14.4383 17947.1 -13561.6 -37.0761 22494.8
 06 11 2015  20 12  -14.4360 17945.5 -13561.8 -37.0791 22493.6
 06 11 2015  20 13  -14.4389 17942.9 -13561.3 -37.0819 22491.3
 06 11 2015  20 14  -14.4434 17938.6 -13560.4 -37.0866 22487.3
 06 11 2015  20 15  -14.4478 17936.3 -13560.7 -37.0910 22485.6
 06 11 2015  20 16  -14.4560 17932.3 -13559.9 -37.0955 22482.0
 06 11 2015  20 17  -14.4608 17929.7 -13560.3 -37.1004 22480.1
 06 11 2015  20 18  -14.4639 17929.2 -13560.7 -37.1019 22480.0
 06 11 2015  20 19  -14.4625 17928.6 -13561.0 -37.1033 22479.6
 06 11 2015  20 20  -14.4589 17928.5 -13561.3 -37.1041 22479.7
 06 11 2015  20 21  -14.4578 17928.6 -13561.7 -37.1049 22480.1
 06 11 2015  20 22  -14.4582 17927.9 -13561.6 -37.1058 22479.5
 06 11 2015  20 23  -14.4602 17927.0 -13562.2 -37.1084 22479.1
 06 11 2015  20 24  -14.4620 17925.4 -13562.0 -37.1102 22477.7
 06 11 2015  20 25  -14.4638 17924.8 -13562.1 -37.1114 22477.3
 06 11 2015  20 26  -14.4654 17924.1 -13561.9 -37.1122 22476.7
 06 11 2015  20 27  -14.4663 17923.5 -13562.4 -37.1141 22476.5
 06 11 2015  20 28  -14.4671 17923.2 -13562.3 -37.1143 22476.2
 06 11 2015  20 29  -14.4698 17922.2 -13561.9 -37.1151 22475.0
 06 11 2015  20 30  -14.4713 17921.4 -13562.5 -37.1175 22474.9
 06 11 2015  20 31  -14.4721 17921.0 -13562.3 -37.1177 22474.3
 06 11 2015  20 32  -14.4736 17920.9 -13562.8 -37.1190 22474.6
 06 11 2015  20 33  -14.4734 17921.0 -13562.8 -37.1189 22474.7
 06 11 2015  20 34  -14.4729 17921.1 -13562.9 -37.1187 22474.8
 06 11 2015  20 35  -14.4733 17921.3 -13562.5 -37.1175 22474.8
 06 11 2015  20 36  -14.4731 17921.4 -13562.5 -37.1174 22474.8
 06 11 2015  20 37  -14.4734 17921.9 -13563.1 -37.1180 22475.6
 06 11 2015  20 38  -14.4736 17922.3 -13562.7 -37.1164 22475.6
 06 11 2015  20 39  -14.4745 17922.6 -13562.8 -37.1163 22476.0
 06 11 2015  20 40  -14.4751 17923.0 -13562.3 -37.1147 22476.0
 06 11 2015  20 41  -14.4762 17923.0 -13562.0 -37.1142 22475.8
 06 11 2015  20 42  -14.4773 17922.5 -13562.2 -37.1151 22475.5
 06 11 2015  20 43  -14.4782 17922.5 -13562.3 -37.1154 22475.6
 06 11 2015  20 44  -14.4778 17923.5 -13561.9 -37.1132 22476.2
 06 11 2015  20 45  -14.4770 17923.7 -13562.2 -37.1134 22476.4
 06 11 2015  20 46  -14.4765 17924.8 -13562.6 -37.1125 22477.6
 06 11 2015  20 47  -14.4773 17924.6 -13562.4 -37.1124 22477.3
 06 11 2015  20 48  -14.4774 17925.6 -13561.8 -37.1095 22477.8
 06 11 2015  20 49  -14.4765 17927.2 -13562.4 -37.1084 22479.4
 06 11 2015  20 50  -14.4738 17928.8 -13562.0 -37.1052 22480.4
 06 11 2015  20 51  -14.4746 17928.6 -13562.1 -37.1057 22480.4
 06 11 2015  20 52  -14.4759 17930.6 -13562.5 -37.1034 22482.1
 06 11 2015  20 53  -14.4772 17930.0 -13561.9 -37.1030 22481.4
 06 11 2015  20 54  -14.4784 17931.1 -13561.3 -37.1002 22481.8
 06 11 2015  20 55  -14.4786 17931.5 -13561.1 -37.0992 22482.1
 06 11 2015  20 56  -14.4777 17932.6 -13561.6 -37.0985 22483.2
 06 11 2015  20 57  -14.4768 17931.5 -13561.1 -37.0991 22482.1
 06 11 2015  20 58  -14.4776 17931.8 -13560.5 -37.0973 22481.9
 06 11 2015  20 59  -14.4792 17930.7 -13560.3 -37.0988 22480.9
 06 11 2015  21 00  -14.4799 17930.5 -13560.2 -37.0988 22480.7
 06 11 2015  21 01  -14.4794 17930.8 -13560.2 -37.0983 22480.9
 06 11 2015  21 02  -14.4781 17931.0 -13560.2 -37.0981 22481.1
 06 11 2015  21 03  -14.4777 17931.3 -13560.7 -37.0987 22481.6
 06 11 2015  21 04  -14.4766 17931.5 -13560.5 -37.0980 22481.6
 06 11 2015  21 05  -14.4758 17931.4 -13560.4 -37.0978 22481.5
 06 11 2015  21 06  -14.4754 17931.4 -13560.6 -37.0981 22481.7
 06 11 2015  21 07  -14.4749 17931.1 -13560.8 -37.0991 22481.5
 06 11 2015  21 08  -14.4744 17930.8 -13560.1 -37.0981 22480.8
 06 11 2015  21 09  -14.4742 17930.4 -13560.7 -37.1000 22480.9
 06 11 2015  21 10  -14.4734 17930.5 -13560.3 -37.0989 22480.8
 06 11 2015  21 11  -14.4719 17931.1 -13560.7 -37.0988 22481.5
 06 11 2015  21 12  -14.4705 17930.8 -13561.0 -37.1000 22481.4
 06 11 2015  21 13  -14.4696 17930.8 -13560.9 -37.0998 22481.4
 06 11 2015  21 14  -14.4692 17930.6 -13560.6 -37.0994 22481.0
 06 11 2015  21 15  -14.4689 17930.4 -13560.7 -37.1000 22481.0
 06 11 2015  21 16  -14.4688 17930.2 -13560.1 -37.0990 22480.4
 06 11 2015  21 17  -14.4685 17929.8 -13560.5 -37.1006 22480.3
 06 11 2015  21 18  -14.4688 17929.3 -13560.2 -37.1007 22479.8
 06 11 2015  21 19  -14.4696 17929.0 -13560.1 -37.1010 22479.5
 06 11 2015  21 20  -14.4695 17928.5 -13560.8 -37.1032 22479.5
 06 11 2015  21 21  -14.4689 17928.4 -13560.7 -37.1030 22479.4
 06 11 2015  21 22  -14.4689 17928.0 -13560.9 -37.1041 22479.1
 06 11 2015  21 23  -14.4687 17927.5 -13560.4 -37.1038 22478.5
 06 11 2015  21 24  -14.4681 17927.7 -13560.6 -37.1039 22478.7
 06 11 2015  21 25  -14.4666 17927.8 -13560.4 -37.1034 22478.6
 06 11 2015  21 26  -14.4654 17928.2 -13560.3 -37.1027 22478.9
 06 11 2015  21 27  -14.4638 17928.7 -13560.8 -37.1027 22479.6
 06 11 2015  21 28  -14.4617 17929.3 -13561.6 -37.1034 22480.6
 06 11 2015  21 29  -14.4600 17929.5 -13561.3 -37.1026 22480.5
 06 11 2015  21 30  -14.4581 17929.8 -13561.1 -37.1017 22480.7
 06 11 2015  21 31  -14.4569 17929.9 -13562.0 -37.1035 22481.3
 06 11 2015  21 32  -14.4556 17929.5 -13561.9 -37.1038 22480.9
 06 11 2015  21 33  -14.4542 17929.5 -13561.8 -37.1036 22480.8
 06 11 2015  21 34  -14.4532 17929.3 -13561.7 -37.1037 22480.6
 06 11 2015  21 35  -14.4528 17929.0 -13561.9 -37.1045 22480.5
 06 11 2015  21 36  -14.4521 17928.5 -13561.9 -37.1052 22480.1
 06 11 2015  21 37  -14.4517 17928.4 -13562.1 -37.1059 22480.2
 06 11 2015  21 38  -14.4532 17926.6 -13561.9 -37.1083 22478.7
 06 11 2015  21 39  -14.4542 17926.6 -13562.3 -37.1091 22478.8
 06 11 2015  21 40  -14.4551 17925.9 -13562.3 -37.1102 22478.3
 06 11 2015  21 41  -14.4586 17924.6 -13562.4 -37.1123 22477.3
 06 11 2015  21 42  -14.4621 17923.7 -13562.6 -37.1143 22476.7
 06 11 2015  21 43  -14.4653 17923.3 -13563.4 -37.1164 22476.9
 06 11 2015  21 44  -14.4685 17922.6 -13563.2 -37.1170 22476.2
 06 11 2015  21 45  -14.4716 17922.5 -13563.4 -37.1176 22476.3
 06 11 2015  21 46  -14.4744 17921.8 -13563.3 -37.1185 22475.6
 06 11 2015  21 47  -14.4757 17921.6 -13563.3 -37.1189 22475.5
 06 11 2015  21 48  -14.4774 17921.0 -13563.7 -37.1206 22475.3
 06 11 2015  21 49  -14.4797 17919.8 -13563.9 -37.1228 22474.4
 06 11 2015  21 50  -14.4799 17919.8 -13564.1 -37.1233 22474.6
 06 11 2015  21 51  -14.4793 17920.2 -13564.3 -37.1230 22474.9
 06 11 2015  21 52  -14.4788 17919.8 -13564.3 -37.1236 22474.7
 06 11 2015  21 53  -14.4783 17918.4 -13563.8 -37.1248 22473.2
 06 11 2015  21 54  -14.4767 17918.0 -13563.7 -37.1252 22472.8
 06 11 2015  21 55  -14.4740 17917.7 -13564.3 -37.1270 22473.0
 06 11 2015  21 56  -14.4724 17916.5 -13563.9 -37.1280 22471.8
 06 11 2015  21 57  -14.4696 17916.5 -13564.6 -37.1294 22472.2
 06 11 2015  21 58  -14.4681 17916.5 -13565.1 -37.1302 22472.5
 06 11 2015  21 59  -14.4661 17916.4 -13564.3 -37.1289 22471.9
 06 11 2015  22 00  -14.4644 17916.5 -13565.0 -37.1301 22472.4
 06 11 2015  22 01  -14.4620 17916.5 -13564.8 -37.1296 22472.3
 06 11 2015  22 02  -14.4618 17915.0 -13564.5 -37.1314 22471.0
 06 11 2015  22 03  -14.4606 17914.2 -13564.4 -37.1324 22470.2
 06 11 2015  22 04  -14.4601 17912.9 -13564.4 -37.1344 22469.2
 06 11 2015  22 05  -14.4575 17912.4 -13564.4 -37.1351 22468.8
 06 11 2015  22 06  -14.4538 17912.7 -13564.9 -37.1359 22469.3
 06 11 2015  22 07  -14.4533 17910.4 -13564.5 -37.1384 22467.3
 06 11 2015  22 08  -14.4527 17909.2 -13564.5 -37.1403 22466.3
 06 11 2015  22 09  -14.4536 17907.7 -13565.0 -37.1435 22465.4
 06 11 2015  22 10  -14.4549 17905.6 -13564.2 -37.1453 22463.3
 06 11 2015  22 11  -14.4568 17904.0 -13564.1 -37.1475 22462.0
 06 11 2015  22 12  -14.4571 17904.0 -13565.0 -37.1493 22462.5
 06 11 2015  22 13  -14.4600 17903.0 -13564.9 -37.1506 22461.6
 06 11 2015  22 14  -14.4626 17902.8 -13565.0 -37.1512 22461.5
 06 11 2015  22 15  -14.4646 17903.6 -13565.6 -37.1511 22462.5
 06 11 2015  22 16  -14.4663 17903.0 -13565.6 -37.1521 22462.1
 06 11 2015  22 17  -14.4695 17901.4 -13564.5 -37.1525 22460.1
 06 11 2015  22 18  -14.4713 17901.7 -13564.9 -37.1527 22460.6
 06 11 2015  22 19  -14.4733 17902.1 -13565.5 -37.1534 22461.3
 06 11 2015  22 20  -14.4736 17903.0 -13566.2 -37.1533 22462.4
 06 11 2015  22 21  -14.4742 17903.6 -13565.9 -37.1518 22462.7
 06 11 2015  22 22  -14.4755 17904.0 -13565.9 -37.1512 22463.0
 06 11 2015  22 23  -14.4769 17904.4 -13565.6 -37.1500 22463.2
 06 11 2015  22 24  -14.4771 17905.9 -13565.6 -37.1477 22464.3
 06 11 2015  22 25  -14.4784 17907.5 -13565.8 -37.1456 22465.8
 06 11 2015  22 26  -14.4781 17908.5 -13566.2 -37.1448 22466.7
 06 11 2015  22 27  -14.4778 17909.8 -13565.9 -37.1422 22467.6
 06 11 2015  22 28  -14.4775 17911.2 -13566.2 -37.1407 22468.9
 06 11 2015  22 29  -14.4777 17911.2 -13565.4 -37.1392 22468.5
 06 11 2015  22 30  -14.4768 17913.5 -13565.8 -37.1364 22470.5
 06 11 2015  22 31  -14.4776 17913.5 -13565.3 -37.1353 22470.2
 06 11 2015  22 32  -14.4783 17914.0 -13565.2 -37.1344 22470.5
 06 11 2015  22 33  -14.4781 17914.5 -13565.0 -37.1332 22470.8
 06 11 2015  22 34  -14.4781 17915.2 -13564.9 -37.1320 22471.3
 06 11 2015  22 35  -14.4788 17915.2 -13564.7 -37.1315 22471.3
 06 11 2015  22 36  -14.4784 17916.8 -13564.9 -37.1296 22472.6
 06 11 2015  22 37  -14.4784 17918.0 -13565.0 -37.1278 22473.7
 06 11 2015  22 38  -14.4801 17918.3 -13564.7 -37.1268 22473.7
 06 11 2015  22 39  -14.4820 17917.4 -13564.2 -37.1271 22472.7
 06 11 2015  22 40  -14.4828 17918.0 -13564.0 -37.1257 22473.0
 06 11 2015  22 41  -14.4844 17918.6 -13564.3 -37.1253 22473.7
 06 11 2015  22 42  -14.4860 17917.6 -13563.8 -37.1259 22472.6
 06 11 2015  22 43  -14.4869 17918.0 -13563.9 -37.1255 22473.0
 06 11 2015  22 44  -14.4882 17918.0 -13564.1 -37.1259 22473.1
 06 11 2015  22 45  -14.4892 17918.2 -13563.8 -37.1252 22473.1
 06 11 2015  22 46  -14.4884 17919.6 -13564.3 -37.1239 22474.4
 06 11 2015  22 47  -14.4889 17920.0 -13563.9 -37.1225 22474.5
 06 11 2015  22 48  -14.4890 17920.0 -13564.2 -37.1232 22474.7
 06 11 2015  22 49  -14.4888 17919.1 -13564.1 -37.1243 22473.9
 06 11 2015  22 50  -14.4865 17920.9 -13564.3 -37.1219 22475.5
 06 11 2015  22 51  -14.4862 17922.4 -13564.6 -37.1203 22476.9
 06 11 2015  22 52  -14.4843 17924.0 -13564.3 -37.1173 22478.0
 06 11 2015  22 53  -14.4823 17927.0 -13564.9 -37.1138 22480.7
 06 11 2015  22 54  -14.4824 17927.3 -13564.3 -37.1121 22480.6
 06 11 2015  22 55  -14.4806 17928.0 -13564.8 -37.1120 22481.4
 06 11 2015  22 56  -14.4789 17928.8 -13564.4 -37.1099 22481.9
 06 11 2015  22 57  -14.4782 17928.4 -13564.2 -37.1103 22481.5
 06 11 2015  22 58  -14.4774 17928.1 -13563.6 -37.1095 22480.9
 06 11 2015  22 59  -14.4756 17928.3 -13563.5 -37.1090 22480.9
 06 11 2015  23 00  -14.4743 17928.2 -13563.7 -37.1095 22481.0
 06 11 2015  23 01  -14.4738 17926.2 -13563.2 -37.1115 22479.1
 06 11 2015  23 02  -14.4715 17927.7 -13563.4 -37.1097 22480.4
 06 11 2015  23 03  -14.4726 17927.9 -13563.5 -37.1095 22480.6
 06 11 2015  23 04  -14.4729 17927.5 -13563.3 -37.1098 22480.2
 06 11 2015  23 05  -14.4736 17928.2 -13564.0 -37.1102 22481.1
 06 11 2015  23 06  -14.4747 17925.3 -13563.4 -37.1133 22478.5
 06 11 2015  23 07  -14.4718 17926.2 -13563.4 -37.1119 22479.2
 06 11 2015  23 08  -14.4731 17926.0 -13563.9 -37.1133 22479.3
 06 11 2015  23 09  -14.4753 17924.4 -13563.1 -37.1140 22477.6
 06 11 2015  23 10  -14.4741 17925.2 -13563.7 -37.1140 22478.6
 06 11 2015  23 11  -14.4735 17927.1 -13564.5 -37.1128 22480.6
 06 11 2015  23 12  -14.4728 17927.5 -13564.2 -37.1116 22480.7
 06 11 2015  23 13  -14.4717 17927.0 -13564.1 -37.1121 22480.3
 06 11 2015  23 14  -14.4704 17927.9 -13564.6 -37.1119 22481.3
 06 11 2015  23 15  -14.4684 17930.4 -13564.8 -37.1084 22483.4
 06 11 2015  23 16  -14.4672 17932.9 -13565.4 -37.1057 22485.7
 06 11 2015  23 17  -14.4676 17933.6 -13564.7 -37.1031 22485.9
 06 11 2015  23 18  -14.4724 17930.6 -13564.1 -37.1067 22483.1
 06 11 2015  23 19  -14.4765 17927.7 -13563.1 -37.1091 22480.2
 06 11 2015  23 20  -14.4797 17926.8 -13563.5 -37.1112 22479.7
 06 11 2015  23 21  -14.4834 17925.9 -13563.9 -37.1134 22479.3
 06 11 2015  23 22  -14.4872 17924.6 -13563.5 -37.1145 22478.0
 06 11 2015  23 23  -14.4897 17924.7 -13563.9 -37.1153 22478.3
 06 11 2015  23 24  -14.4930 17924.3 -13564.3 -37.1167 22478.3
 06 11 2015  23 25  -14.4962 17924.4 -13564.5 -37.1169 22478.4
 06 11 2015  23 26  -14.5017 17922.3 -13564.3 -37.1197 22476.7
 06 11 2015  23 27  -14.5070 17920.2 -13564.2 -37.1228 22474.9
 06 11 2015  23 28  -14.5110 17919.2 -13563.9 -37.1238 22473.9
 06 11 2015  23 29  -14.5151 17917.5 -13564.2 -37.1270 22472.7
 06 11 2015  23 30  -14.5185 17916.2 -13564.2 -37.1290 22471.8
 06 11 2015  23 31  -14.5222 17914.5 -13564.3 -37.1318 22470.4
 06 11 2015  23 32  -14.5254 17913.0 -13564.7 -37.1349 22469.5
 06 11 2015  23 33  -14.5278 17911.7 -13564.9 -37.1374 22468.6
 06 11 2015  23 34  -14.5300 17910.4 -13565.1 -37.1397 22467.7
 06 11 2015  23 35  -14.5310 17908.9 -13565.6 -37.1430 22466.8
 06 11 2015  23 36  -14.5315 17907.6 -13565.9 -37.1456 22465.9
 06 11 2015  23 37  -14.5307 17906.6 -13565.8 -37.1471 22465.0
 06 11 2015  23 38  -14.5298 17905.1 -13565.9 -37.1494 22463.9
 06 11 2015  23 39  -14.5274 17904.3 -13566.5 -37.1519 22463.6
 06 11 2015  23 40  -14.5249 17904.5 -13566.5 -37.1515 22463.8
 06 11 2015  23 41  -14.5226 17904.3 -13566.8 -37.1526 22463.7
 06 11 2015  23 42  -14.5216 17904.2 -13567.6 -37.1543 22464.2
 06 11 2015  23 43  -14.5225 17904.0 -13567.3 -37.1539 22463.9
 06 11 2015  23 44  -14.5228 17903.5 -13567.7 -37.1555 22463.7
 06 11 2015  23 45  -14.5232 17903.3 -13567.5 -37.1556 22463.4
 06 11 2015  23 46  -14.5237 17903.1 -13567.7 -37.1563 22463.4
 06 11 2015  23 47  -14.5244 17903.3 -13567.8 -37.1562 22463.6
 06 11 2015  23 48  -14.5246 17903.6 -13568.4 -37.1570 22464.2
 06 11 2015  23 49  -14.5259 17903.5 -13567.7 -37.1556 22463.7
 06 11 2015  23 50  -14.5265 17903.9 -13568.5 -37.1567 22464.4
 06 11 2015  23 51  -14.5288 17903.6 -13568.0 -37.1560 22463.9
 06 11 2015  23 52  -14.5299 17903.5 -13568.2 -37.1568 22464.0
 06 11 2015  23 53  -14.5309 17903.2 -13567.6 -37.1559 22463.4
 06 11 2015  23 54  -14.5306 17902.8 -13568.0 -37.1574 22463.3
 06 11 2015  23 55  -14.5304 17902.5 -13567.7 -37.1571 22462.9
 06 11 2015  23 56  -14.5305 17901.7 -13567.9 -37.1589 22462.4
 06 11 2015  23 57  -14.5309 17901.3 -13567.8 -37.1593 22462.0
 06 11 2015  23 58  -14.5302 17902.0 -13568.7 -37.1600 22463.1
