SAO MARTINHO DA SERRA EMBRACE-06 <163> 1 Min. Reported data

 DD MM YYYY  HH MM   D(Deg)  H(nT)   Z(nT)   I(Deg)   F(nT)

 12 06 2015  00 00  -14.4907 17956.6 -13542.0 -37.0216 22490.5
 12 06 2015  00 01  -14.4904 17956.7 -13542.5 -37.0226 22490.9
 12 06 2015  00 02  -14.4902 17956.8 -13542.1 -37.0217 22490.8
 12 06 2015  00 03  -14.4897 17956.8 -13541.9 -37.0212 22490.6
 12 06 2015  00 04  -14.4893 17956.9 -13542.3 -37.0220 22491.0
 12 06 2015  00 05  -14.4890 17957.2 -13542.0 -37.0208 22491.0
 12 06 2015  00 06  -14.4893 17957.2 -13541.7 -37.0202 22490.8
 12 06 2015  00 07  -14.4892 17957.1 -13542.4 -37.0218 22491.2
 12 06 2015  00 08  -14.4891 17956.9 -13542.1 -37.0216 22490.8
 12 06 2015  00 09  -14.4887 17956.8 -13542.7 -37.0227 22491.1
 12 06 2015  00 10  -14.4887 17956.8 -13542.0 -37.0215 22490.7
 12 06 2015  00 11  -14.4887 17956.7 -13542.1 -37.0219 22490.7
 12 06 2015  00 12  -14.4889 17956.7 -13541.7 -37.0210 22490.5
 12 06 2015  00 13  -14.4888 17956.9 -13542.3 -37.0220 22491.0
 12 06 2015  00 14  -14.4889 17957.1 -13542.3 -37.0215 22491.1
 12 06 2015  00 15  -14.4891 17957.3 -13542.4 -37.0216 22491.3
 12 06 2015  00 16  -14.4890 17957.4 -13542.6 -37.0217 22491.6
 12 06 2015  00 17  -14.4892 17957.6 -13542.3 -37.0209 22491.5
 12 06 2015  00 18  -14.4892 17957.7 -13542.6 -37.0213 22491.8
 12 06 2015  00 19  -14.4893 17957.9 -13542.5 -37.0209 22491.9
 12 06 2015  00 20  -14.4890 17958.0 -13542.8 -37.0212 22492.2
 12 06 2015  00 21  -14.4888 17958.3 -13542.1 -37.0193 22491.9
 12 06 2015  00 22  -14.4886 17958.4 -13541.9 -37.0189 22491.9
 12 06 2015  00 23  -14.4885 17958.3 -13542.3 -37.0197 22492.1
 12 06 2015  00 24  -14.4884 17958.4 -13542.5 -37.0199 22492.3
 12 06 2015  00 25  -14.4885 17958.4 -13541.8 -37.0185 22491.9
 12 06 2015  00 26  -14.4883 17958.3 -13542.1 -37.0193 22492.0
 12 06 2015  00 27  -14.4885 17958.2 -13542.3 -37.0198 22492.0
 12 06 2015  00 28  -14.4882 17958.0 -13542.6 -37.0207 22492.1
 12 06 2015  00 29  -14.4879 17958.0 -13542.3 -37.0201 22491.8
 12 06 2015  00 30  -14.4879 17957.9 -13542.0 -37.0198 22491.6
 12 06 2015  00 31  -14.4880 17957.8 -13541.9 -37.0196 22491.4
 12 06 2015  00 32  -14.4884 17957.6 -13541.9 -37.0200 22491.2
 12 06 2015  00 33  -14.4887 17957.5 -13541.9 -37.0201 22491.2
 12 06 2015  00 34  -14.4884 17957.5 -13542.1 -37.0204 22491.3
 12 06 2015  00 35  -14.4881 17957.5 -13542.2 -37.0208 22491.4
 12 06 2015  00 36  -14.4877 17957.5 -13542.0 -37.0203 22491.3
 12 06 2015  00 37  -14.4873 17957.6 -13542.1 -37.0204 22491.4
 12 06 2015  00 38  -14.4872 17957.7 -13542.8 -37.0218 22491.9
 12 06 2015  00 39  -14.4874 17957.7 -13542.6 -37.0213 22491.8
 12 06 2015  00 40  -14.4873 17957.7 -13542.0 -37.0200 22491.5
 12 06 2015  00 41  -14.4873 17957.8 -13542.0 -37.0199 22491.5
 12 06 2015  00 42  -14.4873 17957.7 -13542.3 -37.0207 22491.6
 12 06 2015  00 43  -14.4871 17957.7 -13542.4 -37.0209 22491.6
 12 06 2015  00 44  -14.4870 17957.6 -13542.3 -37.0207 22491.6
 12 06 2015  00 45  -14.4870 17957.6 -13542.4 -37.0211 22491.6
 12 06 2015  00 46  -14.4869 17957.6 -13542.7 -37.0218 22491.8
 12 06 2015  00 47  -14.4869 17957.6 -13542.6 -37.0215 22491.7
 12 06 2015  00 48  -14.4869 17957.5 -13542.9 -37.0220 22491.8
 12 06 2015  00 49  -14.4868 17957.7 -13542.5 -37.0211 22491.7
 12 06 2015  00 50  -14.4866 17957.8 -13542.5 -37.0211 22491.8
 12 06 2015  00 51  -14.4866 17957.9 -13542.7 -37.0213 22492.0
 12 06 2015  00 52  -14.4867 17957.8 -13542.4 -37.0209 22491.8
 12 06 2015  00 53  -14.4869 17957.6 -13542.5 -37.0212 22491.6
 12 06 2015  00 54  -14.4870 17957.6 -13542.7 -37.0216 22491.8
 12 06 2015  00 55  -14.4874 17957.6 -13542.3 -37.0209 22491.6
 12 06 2015  00 56  -14.4876 17957.5 -13542.3 -37.0209 22491.5
 12 06 2015  00 57  -14.4876 17957.5 -13542.3 -37.0209 22491.5
 12 06 2015  00 58  -14.4876 17957.4 -13542.6 -37.0217 22491.6
 12 06 2015  00 59  -14.4876 17957.3 -13542.5 -37.0216 22491.4
 12 06 2015  01 00  -14.4875 17957.3 -13542.6 -37.0219 22491.4
 12 06 2015  01 01  -14.4877 17957.1 -13542.1 -37.0212 22491.0
 12 06 2015  01 02  -14.4879 17957.0 -13541.8 -37.0208 22490.8
 12 06 2015  01 03  -14.4879 17957.1 -13542.0 -37.0210 22490.9
 12 06 2015  01 04  -14.4880 17957.1 -13542.6 -37.0221 22491.3
 12 06 2015  01 05  -14.4883 17957.0 -13542.3 -37.0218 22491.0
 12 06 2015  01 06  -14.4888 17956.5 -13542.6 -37.0231 22490.9
 12 06 2015  01 07  -14.4893 17956.4 -13542.2 -37.0225 22490.6
 12 06 2015  01 08  -14.4891 17956.7 -13542.3 -37.0223 22490.8
 12 06 2015  01 09  -14.4887 17957.1 -13542.5 -37.0220 22491.3
 12 06 2015  01 10  -14.4885 17957.2 -13542.8 -37.0225 22491.5
 12 06 2015  01 11  -14.4888 17957.0 -13542.2 -37.0216 22491.0
 12 06 2015  01 12  -14.4891 17956.6 -13542.7 -37.0232 22491.0
 12 06 2015  01 13  -14.4894 17956.3 -13542.6 -37.0235 22490.7
 12 06 2015  01 14  -14.4896 17956.0 -13542.3 -37.0233 22490.3
 12 06 2015  01 15  -14.4898 17955.8 -13542.3 -37.0237 22490.1
 12 06 2015  01 16  -14.4900 17955.7 -13542.7 -37.0244 22490.3
 12 06 2015  01 17  -14.4899 17955.9 -13542.5 -37.0239 22490.3
 12 06 2015  01 18  -14.4898 17956.0 -13542.7 -37.0241 22490.5
 12 06 2015  01 19  -14.4893 17956.5 -13543.0 -37.0238 22491.1
 12 06 2015  01 20  -14.4889 17956.8 -13542.8 -37.0229 22491.2
 12 06 2015  01 21  -14.4886 17957.1 -13542.9 -37.0228 22491.5
 12 06 2015  01 22  -14.4883 17957.3 -13542.4 -37.0215 22491.4
 12 06 2015  01 23  -14.4883 17957.3 -13542.4 -37.0216 22491.4
 12 06 2015  01 24  -14.4884 17957.3 -13542.2 -37.0212 22491.2
 12 06 2015  01 25  -14.4886 17957.1 -13542.3 -37.0215 22491.1
 12 06 2015  01 26  -14.4888 17956.9 -13542.4 -37.0221 22491.1
 12 06 2015  01 27  -14.4887 17957.0 -13542.6 -37.0224 22491.2
 12 06 2015  01 28  -14.4888 17956.9 -13543.0 -37.0233 22491.4
 12 06 2015  01 29  -14.4889 17956.8 -13543.4 -37.0242 22491.6
 12 06 2015  01 30  -14.4893 17956.8 -13542.4 -37.0224 22491.0
 12 06 2015  01 31  -14.4891 17956.9 -13543.1 -37.0235 22491.5
 12 06 2015  01 32  -14.4893 17956.9 -13542.5 -37.0224 22491.1
 12 06 2015  01 33  -14.4895 17956.8 -13542.6 -37.0228 22491.1
 12 06 2015  01 34  -14.4895 17956.7 -13542.3 -37.0223 22490.9
 12 06 2015  01 35  -14.4898 17956.6 -13542.7 -37.0233 22491.0
 12 06 2015  01 36  -14.4899 17956.5 -13543.2 -37.0243 22491.2
 12 06 2015  01 37  -14.4900 17956.4 -13543.4 -37.0249 22491.3
 12 06 2015  01 38  -14.4899 17956.5 -13542.7 -37.0233 22490.9
 12 06 2015  01 39  -14.4897 17956.7 -13542.4 -37.0223 22490.9
 12 06 2015  01 40  -14.4898 17956.9 -13542.7 -37.0226 22491.2
 12 06 2015  01 41  -14.4899 17957.0 -13542.3 -37.0217 22491.1
 12 06 2015  01 42  -14.4896 17957.3 -13542.9 -37.0225 22491.7
 12 06 2015  01 43  -14.4891 17957.6 -13543.0 -37.0223 22492.0
 12 06 2015  01 44  -14.4888 17957.7 -13543.1 -37.0222 22492.1
 12 06 2015  01 45  -14.4889 17957.7 -13542.6 -37.0213 22491.8
 12 06 2015  01 46  -14.4888 17957.8 -13542.8 -37.0215 22492.0
 12 06 2015  01 47  -14.4885 17958.2 -13543.0 -37.0214 22492.4
 12 06 2015  01 48  -14.4884 17958.4 -13543.0 -37.0210 22492.6
 12 06 2015  01 49  -14.4888 17958.4 -13542.9 -37.0208 22492.5
 12 06 2015  01 50  -14.4893 17958.5 -13542.9 -37.0207 22492.6
 12 06 2015  01 51  -14.4898 17958.4 -13543.1 -37.0212 22492.6
 12 06 2015  01 52  -14.4902 17958.2 -13542.8 -37.0209 22492.3
 12 06 2015  01 53  -14.4907 17958.2 -13542.7 -37.0208 22492.3
 12 06 2015  01 54  -14.4909 17958.2 -13542.8 -37.0209 22492.3
 12 06 2015  01 55  -14.4909 17958.2 -13542.8 -37.0209 22492.3
 12 06 2015  01 56  -14.4912 17958.2 -13542.7 -37.0206 22492.3
 12 06 2015  01 57  -14.4912 17958.3 -13542.9 -37.0210 22492.4
 12 06 2015  01 58  -14.4913 17958.2 -13542.7 -37.0207 22492.3
 12 06 2015  01 59  -14.4914 17958.1 -13542.7 -37.0209 22492.2
 12 06 2015  02 00  -14.4912 17957.9 -13542.9 -37.0215 22492.2
 12 06 2015  02 01  -14.4914 17957.9 -13543.0 -37.0218 22492.2
 12 06 2015  02 02  -14.4915 17957.8 -13542.8 -37.0215 22492.0
 12 06 2015  02 03  -14.4916 17957.7 -13542.2 -37.0205 22491.6
 12 06 2015  02 04  -14.4914 17957.7 -13542.7 -37.0215 22491.9
 12 06 2015  02 05  -14.4913 17957.7 -13542.9 -37.0218 22492.0
 12 06 2015  02 06  -14.4913 17957.8 -13543.0 -37.0220 22492.2
 12 06 2015  02 07  -14.4913 17957.8 -13543.4 -37.0228 22492.4
 12 06 2015  02 08  -14.4914 17957.7 -13543.1 -37.0223 22492.1
 12 06 2015  02 09  -14.4912 17957.9 -13542.7 -37.0213 22492.0
 12 06 2015  02 10  -14.4912 17957.7 -13543.1 -37.0224 22492.1
 12 06 2015  02 11  -14.4912 17957.5 -13543.1 -37.0225 22492.0
 12 06 2015  02 12  -14.4916 17957.6 -13542.8 -37.0219 22491.8
 12 06 2015  02 13  -14.4917 17957.5 -13543.1 -37.0225 22491.9
 12 06 2015  02 14  -14.4918 17957.4 -13543.0 -37.0226 22491.8
 12 06 2015  02 15  -14.4919 17957.2 -13543.2 -37.0232 22491.8
 12 06 2015  02 16  -14.4923 17957.1 -13543.0 -37.0231 22491.5
 12 06 2015  02 17  -14.4921 17957.2 -13543.6 -37.0241 22492.0
 12 06 2015  02 18  -14.4919 17957.3 -13543.4 -37.0234 22492.0
 12 06 2015  02 19  -14.4918 17957.3 -13542.2 -37.0211 22491.3
 12 06 2015  02 20  -14.4911 17957.3 -13542.9 -37.0225 22491.7
 12 06 2015  02 21  -14.4909 17957.2 -13542.8 -37.0225 22491.6
 12 06 2015  02 22  -14.4913 17956.9 -13543.1 -37.0235 22491.4
 12 06 2015  02 23  -14.4916 17956.7 -13543.2 -37.0240 22491.3
 12 06 2015  02 24  -14.4919 17956.6 -13543.4 -37.0246 22491.4
 12 06 2015  02 25  -14.4923 17956.6 -13543.2 -37.0242 22491.2
 12 06 2015  02 26  -14.4928 17956.4 -13543.1 -37.0242 22491.1
 12 06 2015  02 27  -14.4929 17956.5 -13543.2 -37.0244 22491.2
 12 06 2015  02 28  -14.4927 17956.4 -13543.2 -37.0244 22491.1
 12 06 2015  02 29  -14.4929 17956.3 -13543.2 -37.0246 22491.0
 12 06 2015  02 30  -14.4932 17956.1 -13543.3 -37.0251 22491.0
 12 06 2015  02 31  -14.4935 17956.0 -13543.1 -37.0249 22490.7
 12 06 2015  02 32  -14.4939 17955.9 -13543.3 -37.0255 22490.8
 12 06 2015  02 33  -14.4941 17955.8 -13543.2 -37.0255 22490.6
 12 06 2015  02 34  -14.4941 17955.6 -13543.4 -37.0261 22490.6
 12 06 2015  02 35  -14.4942 17955.4 -13543.4 -37.0264 22490.5
 12 06 2015  02 36  -14.4944 17955.3 -13543.0 -37.0257 22490.2
 12 06 2015  02 37  -14.4945 17955.2 -13543.6 -37.0271 22490.4
 12 06 2015  02 38  -14.4946 17955.0 -13543.3 -37.0267 22490.1
 12 06 2015  02 39  -14.4945 17955.0 -13543.4 -37.0270 22490.2
 12 06 2015  02 40  -14.4938 17955.0 -13543.6 -37.0274 22490.3
 12 06 2015  02 41  -14.4932 17955.1 -13543.7 -37.0276 22490.4
 12 06 2015  02 42  -14.4929 17955.0 -13543.3 -37.0269 22490.1
 12 06 2015  02 43  -14.4924 17955.2 -13543.2 -37.0265 22490.2
 12 06 2015  02 44  -14.4922 17955.1 -13543.5 -37.0272 22490.3
 12 06 2015  02 45  -14.4922 17955.0 -13543.9 -37.0280 22490.4
 12 06 2015  02 46  -14.4919 17955.2 -13544.0 -37.0279 22490.6
 12 06 2015  02 47  -14.4912 17955.3 -13543.3 -37.0264 22490.3
 12 06 2015  02 48  -14.4906 17955.2 -13543.3 -37.0266 22490.2
 12 06 2015  02 49  -14.4906 17954.9 -13543.7 -37.0277 22490.2
 12 06 2015  02 50  -14.4906 17954.6 -13544.0 -37.0288 22490.1
 12 06 2015  02 51  -14.4904 17954.5 -13543.7 -37.0286 22489.9
 12 06 2015  02 52  -14.4897 17954.4 -13543.7 -37.0285 22489.9
 12 06 2015  02 53  -14.4888 17954.6 -13544.3 -37.0296 22490.4
 12 06 2015  02 54  -14.4889 17954.4 -13543.2 -37.0275 22489.5
 12 06 2015  02 55  -14.4891 17954.2 -13544.1 -37.0299 22489.9
 12 06 2015  02 56  -14.4895 17954.1 -13543.3 -37.0282 22489.4
 12 06 2015  02 57  -14.4892 17954.3 -13543.5 -37.0284 22489.6
 12 06 2015  02 58  -14.4890 17954.4 -13543.8 -37.0287 22489.9
 12 06 2015  02 59  -14.4892 17954.3 -13544.1 -37.0295 22490.0
 12 06 2015  03 00  -14.4894 17954.3 -13543.3 -37.0279 22489.5
 12 06 2015  03 01  -14.4896 17954.2 -13543.6 -37.0287 22489.6
 12 06 2015  03 02  -14.4900 17954.2 -13543.5 -37.0284 22489.6
 12 06 2015  03 03  -14.4900 17954.5 -13543.7 -37.0284 22489.9
 12 06 2015  03 04  -14.4900 17954.7 -13543.8 -37.0284 22490.1
 12 06 2015  03 05  -14.4900 17954.9 -13544.1 -37.0285 22490.5
 12 06 2015  03 06  -14.4897 17955.0 -13544.1 -37.0286 22490.5
 12 06 2015  03 07  -14.4894 17955.0 -13544.2 -37.0288 22490.6
 12 06 2015  03 08  -14.4892 17955.0 -13543.9 -37.0281 22490.4
 12 06 2015  03 09  -14.4886 17955.1 -13544.0 -37.0282 22490.6
 12 06 2015  03 10  -14.4883 17955.0 -13544.3 -37.0289 22490.7
 12 06 2015  03 11  -14.4882 17954.9 -13543.4 -37.0273 22490.1
 12 06 2015  03 12  -14.4878 17954.9 -13544.1 -37.0287 22490.4
 12 06 2015  03 13  -14.4878 17954.7 -13544.3 -37.0294 22490.4
 12 06 2015  03 14  -14.4878 17954.6 -13543.9 -37.0286 22490.1
 12 06 2015  03 15  -14.4878 17954.5 -13544.3 -37.0295 22490.3
 12 06 2015  03 16  -14.4883 17954.4 -13543.7 -37.0285 22489.8
 12 06 2015  03 17  -14.4887 17954.3 -13543.9 -37.0291 22489.9
 12 06 2015  03 18  -14.4891 17954.3 -13544.1 -37.0296 22490.0
 12 06 2015  03 19  -14.4892 17954.2 -13543.8 -37.0292 22489.8
 12 06 2015  03 20  -14.4892 17954.2 -13544.0 -37.0295 22489.8
 12 06 2015  03 21  -14.4894 17954.1 -13544.0 -37.0297 22489.8
 12 06 2015  03 22  -14.4894 17954.1 -13544.0 -37.0298 22489.8
 12 06 2015  03 23  -14.4893 17954.1 -13544.0 -37.0296 22489.7
 12 06 2015  03 24  -14.4892 17954.1 -13544.0 -37.0296 22489.8
 12 06 2015  03 25  -14.4887 17954.2 -13544.0 -37.0297 22489.8
 12 06 2015  03 26  -14.4879 17954.2 -13544.1 -37.0297 22489.9
 12 06 2015  03 27  -14.4872 17954.4 -13544.1 -37.0293 22490.0
 12 06 2015  03 28  -14.4863 17954.7 -13544.0 -37.0289 22490.2
 12 06 2015  03 29  -14.4861 17954.6 -13544.0 -37.0289 22490.2
 12 06 2015  03 30  -14.4863 17954.5 -13544.0 -37.0291 22490.1
 12 06 2015  03 31  -14.4867 17954.7 -13544.0 -37.0289 22490.2
 12 06 2015  03 32  -14.4872 17955.0 -13543.9 -37.0281 22490.4
 12 06 2015  03 33  -14.4869 17955.3 -13544.1 -37.0280 22490.8
 12 06 2015  03 34  -14.4865 17955.3 -13544.3 -37.0283 22490.9
 12 06 2015  03 35  -14.4863 17955.3 -13544.0 -37.0278 22490.7
 12 06 2015  03 36  -14.4860 17955.4 -13544.1 -37.0279 22490.8
 12 06 2015  03 37  -14.4857 17955.4 -13544.0 -37.0276 22490.8
 12 06 2015  03 38  -14.4854 17955.7 -13543.8 -37.0268 22490.9
 12 06 2015  03 39  -14.4851 17955.9 -13544.0 -37.0270 22491.2
 12 06 2015  03 40  -14.4849 17956.1 -13544.2 -37.0270 22491.5
 12 06 2015  03 41  -14.4847 17956.4 -13543.9 -37.0260 22491.5
 12 06 2015  03 42  -14.4831 17957.5 -13544.8 -37.0260 22492.9
 12 06 2015  03 43  -14.4830 17957.6 -13544.0 -37.0242 22492.5
 12 06 2015  03 44  -14.4820 17957.9 -13544.4 -37.0246 22493.1
 12 06 2015  03 45  -14.4813 17958.1 -13544.6 -37.0247 22493.4
 12 06 2015  03 46  -14.4809 17958.4 -13544.5 -37.0241 22493.5
 12 06 2015  03 47  -14.4803 17959.0 -13543.8 -37.0217 22493.6
 12 06 2015  03 48  -14.4800 17959.6 -13543.6 -37.0203 22493.9
 12 06 2015  03 49  -14.4794 17960.5 -13544.2 -37.0202 22495.0
 12 06 2015  03 50  -14.4795 17961.2 -13544.1 -37.0189 22495.5
 12 06 2015  03 51  -14.4784 17961.8 -13543.8 -37.0174 22495.8
 12 06 2015  03 52  -14.4782 17962.2 -13543.7 -37.0165 22496.1
 12 06 2015  03 53  -14.4778 17962.4 -13543.9 -37.0168 22496.3
 12 06 2015  03 54  -14.4781 17962.8 -13543.9 -37.0161 22496.6
 12 06 2015  03 55  -14.4780 17962.8 -13543.1 -37.0145 22496.2
 12 06 2015  03 56  -14.4776 17962.9 -13543.8 -37.0158 22496.7
 12 06 2015  03 57  -14.4776 17963.1 -13543.3 -37.0145 22496.5
 12 06 2015  03 58  -14.4777 17962.8 -13542.6 -37.0135 22495.9
 12 06 2015  03 59  -14.4775 17962.8 -13543.6 -37.0155 22496.5
 12 06 2015  04 00  -14.4771 17963.0 -13543.3 -37.0146 22496.4
 12 06 2015  04 01  -14.4766 17963.1 -13543.1 -37.0141 22496.4
 12 06 2015  04 02  -14.4761 17963.0 -13543.3 -37.0146 22496.5
 12 06 2015  04 03  -14.4756 17963.0 -13543.0 -37.0140 22496.3
 12 06 2015  04 04  -14.4750 17963.0 -13543.1 -37.0141 22496.4
 12 06 2015  04 05  -14.4746 17962.8 -13543.2 -37.0147 22496.2
 12 06 2015  04 06  -14.4746 17962.6 -13542.9 -37.0144 22495.9
 12 06 2015  04 07  -14.4746 17962.5 -13542.9 -37.0146 22495.8
 12 06 2015  04 08  -14.4744 17962.5 -13543.5 -37.0158 22496.1
 12 06 2015  04 09  -14.4745 17962.3 -13542.5 -37.0141 22495.4
 12 06 2015  04 10  -14.4744 17962.2 -13543.3 -37.0157 22495.8
 12 06 2015  04 11  -14.4745 17962.2 -13543.1 -37.0155 22495.7
 12 06 2015  04 12  -14.4743 17962.2 -13543.4 -37.0160 22495.9
 12 06 2015  04 13  -14.4746 17962.1 -13543.7 -37.0169 22496.0
 12 06 2015  04 14  -14.4748 17962.1 -13542.9 -37.0151 22495.5
 12 06 2015  04 15  -14.4749 17962.1 -13543.9 -37.0171 22496.1
 12 06 2015  04 16  -14.4755 17962.2 -13543.3 -37.0159 22495.8
 12 06 2015  04 17  -14.4758 17962.2 -13543.0 -37.0151 22495.6
 12 06 2015  04 18  -14.4764 17962.1 -13543.2 -37.0158 22495.7
 12 06 2015  04 19  -14.4768 17961.8 -13543.3 -37.0163 22495.5
 12 06 2015  04 20  -14.4769 17961.8 -13543.6 -37.0170 22495.6
 12 06 2015  04 21  -14.4771 17961.7 -13543.8 -37.0177 22495.7
 12 06 2015  04 22  -14.4775 17961.8 -13544.0 -37.0178 22495.8
 12 06 2015  04 23  -14.4778 17961.7 -13544.0 -37.0179 22495.8
 12 06 2015  04 24  -14.4781 17961.6 -13543.2 -37.0165 22495.2
 12 06 2015  04 25  -14.4778 17961.5 -13543.6 -37.0176 22495.5
 12 06 2015  04 26  -14.4773 17961.4 -13543.4 -37.0172 22495.3
 12 06 2015  04 27  -14.4765 17961.5 -13543.8 -37.0179 22495.5
 12 06 2015  04 28  -14.4762 17961.4 -13543.3 -37.0170 22495.1
 12 06 2015  04 29  -14.4756 17961.3 -13543.8 -37.0181 22495.4
 12 06 2015  04 30  -14.4749 17961.1 -13544.1 -37.0191 22495.4
 12 06 2015  04 31  -14.4743 17960.7 -13543.5 -37.0185 22494.7
 12 06 2015  04 32  -14.4736 17960.4 -13543.9 -37.0198 22494.8
 12 06 2015  04 33  -14.4738 17960.2 -13544.2 -37.0206 22494.8
 12 06 2015  04 34  -14.4744 17960.3 -13544.5 -37.0212 22495.0
 12 06 2015  04 35  -14.4752 17960.2 -13544.1 -37.0204 22494.7
 12 06 2015  04 36  -14.4758 17960.1 -13543.6 -37.0195 22494.3
 12 06 2015  04 37  -14.4768 17959.8 -13543.5 -37.0200 22494.0
 12 06 2015  04 38  -14.4773 17959.7 -13544.4 -37.0219 22494.5
 12 06 2015  04 39  -14.4782 17959.6 -13543.2 -37.0196 22493.6
 12 06 2015  04 40  -14.4785 17959.5 -13544.0 -37.0214 22494.1
 12 06 2015  04 41  -14.4789 17959.4 -13543.7 -37.0210 22493.8
 12 06 2015  04 42  -14.4791 17959.3 -13543.9 -37.0214 22493.9
 12 06 2015  04 43  -14.4790 17959.3 -13544.3 -37.0224 22494.1
 12 06 2015  04 44  -14.4789 17959.2 -13543.9 -37.0216 22493.8
 12 06 2015  04 45  -14.4789 17959.2 -13544.3 -37.0226 22494.0
 12 06 2015  04 46  -14.4789 17959.2 -13544.0 -37.0218 22493.8
 12 06 2015  04 47  -14.4791 17959.4 -13543.5 -37.0205 22493.7
 12 06 2015  04 48  -14.4791 17959.6 -13543.8 -37.0209 22494.0
 12 06 2015  04 49  -14.4794 17959.5 -13543.5 -37.0204 22493.7
 12 06 2015  04 50  -14.4793 17959.3 -13543.6 -37.0210 22493.7
 12 06 2015  04 51  -14.4791 17959.3 -13544.6 -37.0228 22494.3
 12 06 2015  04 52  -14.4791 17959.4 -13544.8 -37.0232 22494.5
 12 06 2015  04 53  -14.4787 17959.6 -13544.0 -37.0212 22494.1
 12 06 2015  04 54  -14.4784 17959.5 -13544.8 -37.0230 22494.6
 12 06 2015  04 55  -14.4786 17959.5 -13544.0 -37.0213 22494.1
 12 06 2015  04 56  -14.4787 17959.5 -13544.3 -37.0220 22494.3
 12 06 2015  04 57  -14.4786 17959.7 -13543.8 -37.0207 22494.1
 12 06 2015  04 58  -14.4785 17959.8 -13544.1 -37.0211 22494.4
 12 06 2015  04 59  -14.4785 17959.8 -13544.5 -37.0219 22494.6
 12 06 2015  05 00  -14.4786 17959.8 -13544.3 -37.0215 22494.5
 12 06 2015  05 01  -14.4788 17959.6 -13544.6 -37.0224 22494.5
 12 06 2015  05 02  -14.4790 17959.6 -13544.2 -37.0216 22494.3
 12 06 2015  05 03  -14.4782 17959.8 -13544.3 -37.0215 22494.4
 12 06 2015  05 04  -14.4774 17960.1 -13544.4 -37.0213 22494.8
 12 06 2015  05 05  -14.4766 17960.3 -13544.5 -37.0212 22495.0
 12 06 2015  05 06  -14.4760 17960.5 -13544.7 -37.0213 22495.2
 12 06 2015  05 07  -14.4758 17960.6 -13544.2 -37.0201 22495.1
 12 06 2015  05 08  -14.4752 17960.8 -13544.2 -37.0198 22495.3
 12 06 2015  05 09  -14.4746 17961.3 -13544.4 -37.0195 22495.7
 12 06 2015  05 10  -14.4745 17961.2 -13544.6 -37.0200 22495.8
 12 06 2015  05 11  -14.4733 17961.8 -13545.1 -37.0202 22496.5
 12 06 2015  05 12  -14.4733 17961.8 -13544.6 -37.0190 22496.3
 12 06 2015  05 13  -14.4730 17962.0 -13544.7 -37.0189 22496.5
 12 06 2015  05 14  -14.4731 17962.3 -13544.4 -37.0178 22496.5
 12 06 2015  05 15  -14.4724 17962.8 -13544.4 -37.0170 22497.0
 12 06 2015  05 16  -14.4718 17963.1 -13544.3 -37.0165 22497.1
 12 06 2015  05 17  -14.4707 17963.5 -13544.5 -37.0163 22497.6
 12 06 2015  05 18  -14.4701 17963.7 -13544.4 -37.0158 22497.7
 12 06 2015  05 19  -14.4695 17963.8 -13544.3 -37.0153 22497.7
 12 06 2015  05 20  -14.4694 17964.0 -13544.4 -37.0152 22497.9
 12 06 2015  05 21  -14.4693 17964.2 -13544.7 -37.0157 22498.2
 12 06 2015  05 22  -14.4701 17964.2 -13543.6 -37.0133 22497.6
 12 06 2015  05 23  -14.4706 17964.0 -13543.7 -37.0139 22497.5
 12 06 2015  05 24  -14.4708 17964.2 -13543.9 -37.0141 22497.7
 12 06 2015  05 25  -14.4709 17964.6 -13544.1 -37.0137 22498.2
 12 06 2015  05 26  -14.4708 17964.6 -13544.4 -37.0144 22498.4
 12 06 2015  05 27  -14.4705 17964.9 -13543.6 -37.0123 22498.2
 12 06 2015  05 28  -14.4697 17965.5 -13544.9 -37.0141 22499.4
 12 06 2015  05 29  -14.4695 17965.8 -13543.7 -37.0110 22498.9
 12 06 2015  05 30  -14.4694 17965.9 -13544.1 -37.0119 22499.3
 12 06 2015  05 31  -14.4692 17966.0 -13543.7 -37.0108 22499.1
 12 06 2015  05 32  -14.4693 17966.2 -13543.3 -37.0096 22499.0
 12 06 2015  05 33  -14.4687 17966.5 -13543.9 -37.0104 22499.6
 12 06 2015  05 34  -14.4686 17966.4 -13544.3 -37.0115 22499.7
 12 06 2015  05 35  -14.4679 17966.7 -13543.7 -37.0096 22499.6
 12 06 2015  05 36  -14.4676 17966.8 -13543.6 -37.0095 22499.7
 12 06 2015  05 37  -14.4671 17966.8 -13543.8 -37.0098 22499.8
 12 06 2015  05 38  -14.4674 17966.7 -13543.9 -37.0100 22499.8
 12 06 2015  05 39  -14.4679 17966.8 -13543.6 -37.0094 22499.7
 12 06 2015  05 40  -14.4682 17966.9 -13543.7 -37.0094 22499.8
 12 06 2015  05 41  -14.4686 17966.8 -13543.8 -37.0097 22499.8
 12 06 2015  05 42  -14.4688 17966.9 -13543.6 -37.0092 22499.8
 12 06 2015  05 43  -14.4689 17967.1 -13544.2 -37.0102 22500.2
 12 06 2015  05 44  -14.4688 17967.5 -13544.1 -37.0095 22500.5
 12 06 2015  05 45  -14.4690 17967.6 -13544.6 -37.0102 22500.9
 12 06 2015  05 46  -14.4693 17967.6 -13544.5 -37.0099 22500.8
 12 06 2015  05 47  -14.4691 17967.7 -13544.0 -37.0087 22500.6
 12 06 2015  05 48  -14.4688 17967.7 -13544.2 -37.0092 22500.8
 12 06 2015  05 49  -14.4689 17967.5 -13543.4 -37.0078 22500.1
 12 06 2015  05 50  -14.4690 17967.7 -13543.9 -37.0086 22500.6
 12 06 2015  05 51  -14.4688 17967.9 -13543.5 -37.0076 22500.5
 12 06 2015  05 52  -14.4687 17968.0 -13543.9 -37.0082 22500.8
 12 06 2015  05 53  -14.4687 17968.0 -13543.5 -37.0074 22500.6
 12 06 2015  05 54  -14.4681 17968.2 -13544.0 -37.0081 22501.0
 12 06 2015  05 55  -14.4678 17968.2 -13543.4 -37.0068 22500.7
 12 06 2015  05 56  -14.4679 17967.9 -13543.6 -37.0077 22500.6
 12 06 2015  05 57  -14.4679 17967.8 -13543.5 -37.0076 22500.4
 12 06 2015  05 58  -14.4676 17967.9 -13543.4 -37.0073 22500.5
 12 06 2015  05 59  -14.4673 17967.9 -13543.6 -37.0076 22500.6
 12 06 2015  06 00  -14.4673 17967.8 -13543.6 -37.0079 22500.5
 12 06 2015  06 01  -14.4673 17967.6 -13543.9 -37.0087 22500.5
 12 06 2015  06 02  -14.4675 17967.5 -13543.5 -37.0081 22500.1
 12 06 2015  06 03  -14.4677 17967.2 -13543.9 -37.0093 22500.2
 12 06 2015  06 04  -14.4681 17967.1 -13543.3 -37.0084 22499.7
 12 06 2015  06 05  -14.4685 17967.0 -13543.4 -37.0088 22499.7
 12 06 2015  06 06  -14.4689 17966.8 -13543.5 -37.0091 22499.6
 12 06 2015  06 07  -14.4690 17966.8 -13543.4 -37.0089 22499.6
 12 06 2015  06 08  -14.4689 17966.8 -13543.6 -37.0093 22499.7
 12 06 2015  06 09  -14.4689 17966.8 -13543.7 -37.0094 22499.7
 12 06 2015  06 10  -14.4690 17966.7 -13543.4 -37.0092 22499.5
 12 06 2015  06 11  -14.4690 17966.6 -13543.7 -37.0099 22499.6
 12 06 2015  06 12  -14.4688 17966.6 -13543.6 -37.0097 22499.5
 12 06 2015  06 13  -14.4684 17966.6 -13543.9 -37.0104 22499.7
 12 06 2015  06 14  -14.4686 17966.5 -13543.4 -37.0095 22499.3
 12 06 2015  06 15  -14.4685 17966.6 -13544.2 -37.0110 22499.9
 12 06 2015  06 16  -14.4685 17966.6 -13544.1 -37.0107 22499.8
 12 06 2015  06 17  -14.4684 17966.6 -13543.8 -37.0100 22499.6
 12 06 2015  06 18  -14.4687 17966.6 -13542.9 -37.0082 22499.1
 12 06 2015  06 19  -14.4685 17966.6 -13544.0 -37.0105 22499.8
 12 06 2015  06 20  -14.4683 17966.6 -13543.8 -37.0101 22499.6
 12 06 2015  06 21  -14.4685 17966.5 -13543.9 -37.0103 22499.6
 12 06 2015  06 22  -14.4685 17966.7 -13543.5 -37.0095 22499.5
 12 06 2015  06 23  -14.4685 17966.7 -13543.3 -37.0088 22499.4
 12 06 2015  06 24  -14.4688 17966.7 -13543.1 -37.0085 22499.2
 12 06 2015  06 25  -14.4688 17966.7 -13543.4 -37.0091 22499.4
 12 06 2015  06 26  -14.4688 17966.8 -13543.7 -37.0096 22499.7
 12 06 2015  06 27  -14.4690 17966.8 -13544.1 -37.0104 22500.0
 12 06 2015  06 28  -14.4694 17966.7 -13543.3 -37.0088 22499.4
 12 06 2015  06 29  -14.4693 17966.8 -13544.2 -37.0107 22500.0
 12 06 2015  06 30  -14.4692 17966.7 -13544.1 -37.0105 22499.9
 12 06 2015  06 31  -14.4695 17967.0 -13543.1 -37.0080 22499.5
 12 06 2015  06 32  -14.4694 17967.0 -13543.8 -37.0093 22499.9
 12 06 2015  06 33  -14.4697 17967.0 -13544.1 -37.0101 22500.2
 12 06 2015  06 34  -14.4701 17967.0 -13543.5 -37.0087 22499.7
 12 06 2015  06 35  -14.4702 17966.9 -13543.7 -37.0094 22499.8
 12 06 2015  06 36  -14.4704 17967.0 -13544.0 -37.0099 22500.1
 12 06 2015  06 37  -14.4706 17967.2 -13543.6 -37.0089 22500.0
 12 06 2015  06 38  -14.4706 17967.0 -13543.3 -37.0084 22499.7
 12 06 2015  06 39  -14.4700 17967.0 -13544.1 -37.0100 22500.1
 12 06 2015  06 40  -14.4696 17967.0 -13542.7 -37.0074 22499.3
 12 06 2015  06 41  -14.4691 17967.0 -13543.1 -37.0081 22499.5
 12 06 2015  06 42  -14.4690 17966.8 -13543.7 -37.0096 22499.8
 12 06 2015  06 43  -14.4690 17966.8 -13543.6 -37.0092 22499.7
 12 06 2015  06 44  -14.4691 17966.8 -13543.3 -37.0086 22499.5
 12 06 2015  06 45  -14.4689 17966.9 -13543.7 -37.0094 22499.7
 12 06 2015  06 46  -14.4687 17966.9 -13543.8 -37.0095 22499.9
 12 06 2015  06 47  -14.4684 17967.1 -13543.0 -37.0077 22499.5
 12 06 2015  06 48  -14.4682 17967.0 -13543.6 -37.0090 22499.8
 12 06 2015  06 49  -14.4685 17967.1 -13544.2 -37.0101 22500.2
 12 06 2015  06 50  -14.4691 17967.1 -13543.6 -37.0088 22499.9
 12 06 2015  06 51  -14.4696 17967.1 -13543.8 -37.0094 22500.0
 12 06 2015  06 52  -14.4699 17967.0 -13544.2 -37.0102 22500.2
 12 06 2015  06 53  -14.4707 17967.1 -13544.0 -37.0097 22500.1
 12 06 2015  06 54  -14.4710 17967.1 -13543.4 -37.0084 22499.8
 12 06 2015  06 55  -14.4707 17967.1 -13543.8 -37.0093 22500.0
 12 06 2015  06 56  -14.4708 17967.1 -13542.9 -37.0074 22499.4
 12 06 2015  06 57  -14.4709 17967.2 -13543.4 -37.0083 22499.8
 12 06 2015  06 58  -14.4709 17967.4 -13544.0 -37.0093 22500.4
 12 06 2015  06 59  -14.4711 17967.4 -13544.1 -37.0093 22500.5
 12 06 2015  07 00  -14.4712 17967.6 -13543.3 -37.0076 22500.2
 12 06 2015  07 01  -14.4712 17967.7 -13543.6 -37.0081 22500.4
 12 06 2015  07 02  -14.4714 17967.9 -13543.7 -37.0079 22500.6
 12 06 2015  07 03  -14.4717 17968.0 -13543.6 -37.0075 22500.6
 12 06 2015  07 04  -14.4720 17968.0 -13543.8 -37.0079 22500.7
 12 06 2015  07 05  -14.4723 17968.0 -13542.8 -37.0060 22500.1
 12 06 2015  07 06  -14.4721 17968.1 -13543.4 -37.0069 22500.5
 12 06 2015  07 07  -14.4718 17968.3 -13543.7 -37.0073 22500.9
 12 06 2015  07 08  -14.4716 17968.3 -13543.6 -37.0071 22500.9
 12 06 2015  07 09  -14.4711 17968.5 -13543.6 -37.0067 22501.0
 12 06 2015  07 10  -14.4705 17968.4 -13543.6 -37.0069 22501.0
 12 06 2015  07 11  -14.4704 17968.5 -13543.9 -37.0075 22501.2
 12 06 2015  07 12  -14.4705 17968.6 -13543.8 -37.0071 22501.2
 12 06 2015  07 13  -14.4707 17968.6 -13543.6 -37.0067 22501.1
 12 06 2015  07 14  -14.4707 17968.4 -13543.3 -37.0063 22500.8
 12 06 2015  07 15  -14.4703 17968.6 -13543.6 -37.0066 22501.1
 12 06 2015  07 16  -14.4699 17968.8 -13543.3 -37.0056 22501.1
 12 06 2015  07 17  -14.4695 17968.9 -13543.6 -37.0060 22501.3
 12 06 2015  07 18  -14.4695 17968.7 -13543.7 -37.0066 22501.3
 12 06 2015  07 19  -14.4697 17968.8 -13543.2 -37.0056 22501.0
 12 06 2015  07 20  -14.4697 17968.9 -13543.3 -37.0055 22501.2
 12 06 2015  07 21  -14.4700 17968.8 -13543.6 -37.0062 22501.2
 12 06 2015  07 22  -14.4700 17968.9 -13543.3 -37.0055 22501.2
 12 06 2015  07 23  -14.4700 17969.1 -13543.2 -37.0049 22501.3
 12 06 2015  07 24  -14.4699 17969.1 -13543.3 -37.0052 22501.3
 12 06 2015  07 25  -14.4698 17969.3 -13543.7 -37.0057 22501.8
 12 06 2015  07 26  -14.4697 17969.4 -13543.9 -37.0060 22501.9
 12 06 2015  07 27  -14.4698 17969.5 -13543.5 -37.0050 22501.7
 12 06 2015  07 28  -14.4700 17969.5 -13543.6 -37.0052 22501.8
 12 06 2015  07 29  -14.4697 17969.6 -13543.6 -37.0049 22501.9
 12 06 2015  07 30  -14.4696 17969.6 -13543.0 -37.0039 22501.6
 12 06 2015  07 31  -14.4697 17969.6 -13543.6 -37.0052 22501.9
 12 06 2015  07 32  -14.4692 17969.7 -13543.9 -37.0055 22502.1
 12 06 2015  07 33  -14.4688 17969.9 -13543.4 -37.0042 22502.0
 12 06 2015  07 34  -14.4685 17970.0 -13543.6 -37.0044 22502.2
 12 06 2015  07 35  -14.4681 17970.2 -13543.4 -37.0038 22502.2
 12 06 2015  07 36  -14.4678 17970.3 -13543.2 -37.0031 22502.2
 12 06 2015  07 37  -14.4673 17970.3 -13543.6 -37.0041 22502.4
 12 06 2015  07 38  -14.4665 17970.4 -13543.9 -37.0045 22502.7
 12 06 2015  07 39  -14.4663 17970.4 -13543.1 -37.0028 22502.2
 12 06 2015  07 40  -14.4656 17970.3 -13543.2 -37.0031 22502.2
 12 06 2015  07 41  -14.4648 17970.4 -13543.4 -37.0034 22502.4
 12 06 2015  07 42  -14.4644 17970.3 -13542.9 -37.0026 22502.1
 12 06 2015  07 43  -14.4643 17970.5 -13542.7 -37.0019 22502.0
 12 06 2015  07 44  -14.4642 17970.5 -13543.0 -37.0025 22502.2
 12 06 2015  07 45  -14.4645 17970.5 -13543.7 -37.0038 22502.7
 12 06 2015  07 46  -14.4648 17970.5 -13543.4 -37.0032 22502.5
 12 06 2015  07 47  -14.4650 17970.4 -13543.3 -37.0031 22502.4
 12 06 2015  07 48  -14.4650 17970.3 -13543.1 -37.0031 22502.1
 12 06 2015  07 49  -14.4650 17970.2 -13543.6 -37.0041 22502.4
 12 06 2015  07 50  -14.4651 17970.1 -13543.5 -37.0040 22502.3
 12 06 2015  07 51  -14.4655 17970.3 -13542.7 -37.0021 22501.9
 12 06 2015  07 52  -14.4654 17970.6 -13543.5 -37.0035 22502.6
 12 06 2015  07 53  -14.4655 17970.7 -13544.3 -37.0048 22503.2
 12 06 2015  07 54  -14.4655 17970.7 -13543.4 -37.0029 22502.7
 12 06 2015  07 55  -14.4652 17970.8 -13543.2 -37.0024 22502.6
 12 06 2015  07 56  -14.4649 17970.8 -13543.8 -37.0036 22503.0
 12 06 2015  07 57  -14.4647 17970.7 -13543.6 -37.0035 22502.8
 12 06 2015  07 58  -14.4646 17970.7 -13543.4 -37.0029 22502.6
 12 06 2015  07 59  -14.4646 17970.6 -13543.6 -37.0036 22502.7
 12 06 2015  08 00  -14.4647 17970.6 -13543.3 -37.0029 22502.5
 12 06 2015  08 01  -14.4645 17970.6 -13543.6 -37.0035 22502.7
 12 06 2015  08 02  -14.4647 17970.6 -13543.7 -37.0038 22502.7
 12 06 2015  08 03  -14.4651 17970.5 -13543.6 -37.0038 22502.6
 12 06 2015  08 04  -14.4652 17970.6 -13543.6 -37.0036 22502.7
 12 06 2015  08 05  -14.4651 17970.7 -13543.6 -37.0035 22502.8
 12 06 2015  08 06  -14.4652 17970.4 -13543.7 -37.0040 22502.6
 12 06 2015  08 07  -14.4654 17970.4 -13543.5 -37.0036 22502.5
 12 06 2015  08 08  -14.4656 17970.4 -13543.5 -37.0036 22502.5
 12 06 2015  08 09  -14.4655 17970.4 -13543.7 -37.0039 22502.6
 12 06 2015  08 10  -14.4656 17970.5 -13543.6 -37.0038 22502.6
 12 06 2015  08 11  -14.4656 17970.6 -13543.5 -37.0034 22502.7
 12 06 2015  08 12  -14.4655 17970.7 -13543.6 -37.0033 22502.8
 12 06 2015  08 13  -14.4654 17970.8 -13543.6 -37.0034 22502.9
 12 06 2015  08 14  -14.4648 17970.8 -13543.6 -37.0032 22502.9
 12 06 2015  08 15  -14.4647 17970.7 -13543.6 -37.0033 22502.7
 12 06 2015  08 16  -14.4650 17970.6 -13543.5 -37.0034 22502.6
 12 06 2015  08 17  -14.4648 17970.7 -13543.6 -37.0034 22502.7
 12 06 2015  08 18  -14.4648 17970.7 -13543.6 -37.0034 22502.8
 12 06 2015  08 19  -14.4650 17970.7 -13543.6 -37.0033 22502.8
 12 06 2015  08 20  -14.4651 17970.8 -13543.7 -37.0033 22502.9
 12 06 2015  08 21  -14.4646 17970.6 -13543.7 -37.0037 22502.8
 12 06 2015  08 22  -14.4644 17970.7 -13543.5 -37.0033 22502.7
 12 06 2015  08 23  -14.4637 17970.4 -13543.6 -37.0039 22502.6
 12 06 2015  08 24  -14.4638 17970.5 -13543.6 -37.0038 22502.6
 12 06 2015  08 25  -14.4639 17970.7 -13543.6 -37.0035 22502.8
 12 06 2015  08 26  -14.4632 17970.8 -13543.7 -37.0036 22502.9
 12 06 2015  08 27  -14.4625 17971.0 -13543.8 -37.0033 22503.1
 12 06 2015  08 28  -14.4627 17971.0 -13543.9 -37.0035 22503.2
 12 06 2015  08 29  -14.4626 17971.2 -13543.7 -37.0028 22503.3
 12 06 2015  08 30  -14.4622 17971.1 -13544.0 -37.0037 22503.3
 12 06 2015  08 31  -14.4622 17971.2 -13543.1 -37.0015 22502.9
 12 06 2015  08 32  -14.4617 17971.3 -13543.8 -37.0029 22503.4
 12 06 2015  08 33  -14.4611 17971.1 -13543.2 -37.0020 22502.8
 12 06 2015  08 34  -14.4615 17971.0 -13543.4 -37.0025 22502.9
 12 06 2015  08 35  -14.4615 17971.1 -13543.6 -37.0027 22503.1
 12 06 2015  08 36  -14.4613 17970.6 -13543.5 -37.0034 22502.6
 12 06 2015  08 37  -14.4614 17971.1 -13543.7 -37.0031 22503.2
 12 06 2015  08 38  -14.4618 17970.8 -13543.6 -37.0032 22502.9
 12 06 2015  08 39  -14.4618 17971.3 -13543.8 -37.0029 22503.4
 12 06 2015  08 40  -14.4616 17971.0 -13543.5 -37.0028 22502.9
 12 06 2015  08 41  -14.4615 17971.3 -13543.9 -37.0031 22503.4
 12 06 2015  08 42  -14.4612 17970.8 -13543.7 -37.0034 22502.9
 12 06 2015  08 43  -14.4615 17970.9 -13543.3 -37.0026 22502.8
 12 06 2015  08 44  -14.4615 17970.5 -13543.0 -37.0024 22502.2
 12 06 2015  08 45  -14.4623 17971.1 -13543.5 -37.0026 22503.0
 12 06 2015  08 46  -14.4623 17970.9 -13542.9 -37.0016 22502.5
 12 06 2015  08 47  -14.4622 17971.3 -13543.6 -37.0026 22503.3
 12 06 2015  08 48  -14.4611 17971.1 -13544.1 -37.0039 22503.4
 12 06 2015  08 49  -14.4614 17970.8 -13543.6 -37.0033 22502.9
 12 06 2015  08 50  -14.4616 17971.1 -13544.0 -37.0038 22503.3
 12 06 2015  08 51  -14.4619 17970.7 -13544.0 -37.0042 22503.0
 12 06 2015  08 52  -14.4623 17971.2 -13543.6 -37.0026 22503.2
 12 06 2015  08 53  -14.4618 17971.0 -13543.8 -37.0033 22503.2
 12 06 2015  08 54  -14.4614 17971.4 -13543.6 -37.0023 22503.4
 12 06 2015  08 55  -14.4607 17971.2 -13543.7 -37.0028 22503.2
 12 06 2015  08 56  -14.4610 17971.0 -13543.7 -37.0030 22503.1
 12 06 2015  08 57  -14.4616 17971.5 -13543.8 -37.0025 22503.5
 12 06 2015  08 58  -14.4615 17971.1 -13543.8 -37.0031 22503.2
 12 06 2015  08 59  -14.4614 17970.9 -13543.6 -37.0031 22502.9
 12 06 2015  09 00  -14.4610 17970.9 -13543.9 -37.0036 22503.1
 12 06 2015  09 01  -14.4615 17971.3 -13543.6 -37.0025 22503.2
 12 06 2015  09 02  -14.4612 17970.5 -13543.7 -37.0037 22502.7
 12 06 2015  09 03  -14.4629 17971.3 -13543.8 -37.0028 22503.3
 12 06 2015  09 04  -14.4623 17970.6 -13543.8 -37.0039 22502.8
 12 06 2015  09 05  -14.4628 17971.0 -13544.0 -37.0038 22503.2
 12 06 2015  09 06  -14.4622 17970.8 -13544.0 -37.0040 22503.0
 12 06 2015  09 07  -14.4621 17971.0 -13544.0 -37.0036 22503.3
 12 06 2015  09 08  -14.4617 17971.3 -13544.0 -37.0033 22503.6
 12 06 2015  09 09  -14.4615 17971.3 -13544.1 -37.0034 22503.6
 12 06 2015  09 10  -14.4610 17971.2 -13543.8 -37.0029 22503.3
 12 06 2015  09 11  -14.4616 17971.6 -13544.0 -37.0030 22503.7
 12 06 2015  09 12  -14.4612 17971.2 -13544.3 -37.0042 22503.6
 12 06 2015  09 13  -14.4606 17971.0 -13544.6 -37.0050 22503.6
 12 06 2015  09 14  -14.4615 17971.1 -13544.1 -37.0039 22503.4
 12 06 2015  09 15  -14.4609 17971.5 -13544.2 -37.0035 22503.8
 12 06 2015  09 16  -14.4615 17971.9 -13543.6 -37.0017 22503.7
 12 06 2015  09 17  -14.4610 17972.1 -13544.0 -37.0020 22504.2
 12 06 2015  09 18  -14.4609 17971.9 -13543.8 -37.0021 22503.9
 12 06 2015  09 19  -14.4606 17971.5 -13543.7 -37.0024 22503.5
 12 06 2015  09 20  -14.4605 17971.3 -13543.3 -37.0017 22503.1
 12 06 2015  09 21  -14.4614 17971.6 -13544.5 -37.0038 22504.0
 12 06 2015  09 22  -14.4618 17970.9 -13543.6 -37.0032 22502.9
 12 06 2015  09 23  -14.4630 17972.2 -13544.3 -37.0025 22504.4
 12 06 2015  09 24  -14.4622 17972.2 -13544.1 -37.0021 22504.2
 12 06 2015  09 25  -14.4618 17972.0 -13543.9 -37.0020 22504.0
 12 06 2015  09 26  -14.4617 17972.3 -13544.1 -37.0019 22504.4
 12 06 2015  09 27  -14.4617 17972.0 -13543.9 -37.0022 22504.0
 12 06 2015  09 28  -14.4612 17971.9 -13544.0 -37.0023 22504.0
 12 06 2015  09 29  -14.4622 17972.3 -13544.0 -37.0016 22504.3
 12 06 2015  09 30  -14.4614 17972.1 -13544.1 -37.0021 22504.2
 12 06 2015  09 31  -14.4616 17972.6 -13543.5 -37.0002 22504.3
 12 06 2015  09 32  -14.4608 17972.4 -13543.7 -37.0011 22504.2
 12 06 2015  09 33  -14.4611 17972.5 -13543.9 -37.0012 22504.4
 12 06 2015  09 34  -14.4619 17973.0 -13543.7 -37.0001 22504.7
 12 06 2015  09 35  -14.4609 17972.2 -13543.7 -37.0012 22504.0
 12 06 2015  09 36  -14.4623 17973.6 -13543.9 -36.9994 22505.3
 12 06 2015  09 37  -14.4606 17972.9 -13543.6 -36.9999 22504.5
 12 06 2015  09 38  -14.4609 17973.4 -13543.7 -36.9994 22505.0
 12 06 2015  09 39  -14.4611 17973.7 -13543.8 -36.9992 22505.3
 12 06 2015  09 40  -14.4608 17973.8 -13543.7 -36.9987 22505.3
 12 06 2015  09 41  -14.4604 17974.0 -13543.6 -36.9984 22505.5
 12 06 2015  09 42  -14.4598 17974.3 -13543.4 -36.9974 22505.5
 12 06 2015  09 43  -14.4598 17974.2 -13543.4 -36.9975 22505.5
 12 06 2015  09 44  -14.4594 17974.6 -13543.2 -36.9966 22505.7
 12 06 2015  09 45  -14.4586 17974.7 -13543.4 -36.9967 22505.9
 12 06 2015  09 46  -14.4581 17975.0 -13543.4 -36.9964 22506.1
 12 06 2015  09 47  -14.4576 17975.2 -13543.1 -36.9954 22506.0
 12 06 2015  09 48  -14.4571 17975.0 -13543.5 -36.9965 22506.2
 12 06 2015  09 49  -14.4569 17975.3 -13543.1 -36.9952 22506.1
 12 06 2015  09 50  -14.4564 17975.3 -13542.9 -36.9949 22506.0
 12 06 2015  09 51  -14.4569 17975.6 -13543.0 -36.9948 22506.3
 12 06 2015  09 52  -14.4568 17975.3 -13542.8 -36.9947 22506.0
 12 06 2015  09 53  -14.4568 17975.5 -13542.9 -36.9946 22506.1
 12 06 2015  09 54  -14.4564 17975.7 -13542.6 -36.9937 22506.2
 12 06 2015  09 55  -14.4559 17975.7 -13542.4 -36.9931 22506.1
 12 06 2015  09 56  -14.4555 17976.0 -13542.2 -36.9924 22506.1
 12 06 2015  09 57  -14.4548 17976.1 -13542.3 -36.9925 22506.3
 12 06 2015  09 58  -14.4538 17976.3 -13542.7 -36.9931 22506.7
 12 06 2015  09 59  -14.4539 17976.5 -13542.2 -36.9916 22506.6
 12 06 2015  10 00  -14.4538 17976.5 -13542.1 -36.9914 22506.5
 12 06 2015  10 01  -14.4532 17976.6 -13542.3 -36.9918 22506.7
 12 06 2015  10 02  -14.4530 17976.7 -13542.1 -36.9910 22506.7
 12 06 2015  10 03  -14.4530 17976.7 -13542.0 -36.9911 22506.6
 12 06 2015  10 04  -14.4529 17976.7 -13542.0 -36.9910 22506.6
 12 06 2015  10 05  -14.4528 17976.5 -13541.7 -36.9906 22506.3
 12 06 2015  10 06  -14.4531 17976.6 -13542.0 -36.9911 22506.6
 12 06 2015  10 07  -14.4529 17976.7 -13541.9 -36.9908 22506.5
 12 06 2015  10 08  -14.4527 17976.8 -13541.6 -36.9900 22506.4
 12 06 2015  10 09  -14.4525 17976.6 -13542.0 -36.9912 22506.5
 12 06 2015  10 10  -14.4529 17976.8 -13541.8 -36.9905 22506.6
 12 06 2015  10 11  -14.4527 17976.8 -13541.3 -36.9895 22506.3
 12 06 2015  10 12  -14.4519 17976.7 -13541.0 -36.9890 22506.0
 12 06 2015  10 13  -14.4511 17977.1 -13541.4 -36.9893 22506.6
 12 06 2015  10 14  -14.4508 17976.9 -13541.3 -36.9891 22506.4
 12 06 2015  10 15  -14.4508 17976.8 -13541.3 -36.9893 22506.3
 12 06 2015  10 16  -14.4503 17977.1 -13541.5 -36.9892 22506.7
 12 06 2015  10 17  -14.4494 17976.7 -13540.9 -36.9887 22506.0
 12 06 2015  10 18  -14.4493 17977.3 -13541.3 -36.9886 22506.7
 12 06 2015  10 19  -14.4488 17977.3 -13541.5 -36.9889 22506.8
 12 06 2015  10 20  -14.4478 17976.8 -13541.6 -36.9900 22506.5
 12 06 2015  10 21  -14.4480 17977.4 -13541.5 -36.9887 22506.9
 12 06 2015  10 22  -14.4468 17977.3 -13541.6 -36.9892 22506.8
 12 06 2015  10 23  -14.4463 17977.6 -13541.6 -36.9889 22507.1
 12 06 2015  10 24  -14.4460 17978.0 -13541.7 -36.9884 22507.5
 12 06 2015  10 25  -14.4451 17978.1 -13541.6 -36.9881 22507.5
 12 06 2015  10 26  -14.4442 17978.0 -13541.5 -36.9880 22507.4
 12 06 2015  10 27  -14.4443 17978.2 -13541.4 -36.9874 22507.4
 12 06 2015  10 28  -14.4432 17977.9 -13541.7 -36.9883 22507.4
 12 06 2015  10 29  -14.4439 17978.4 -13541.4 -36.9872 22507.6
 12 06 2015  10 30  -14.4437 17978.6 -13541.4 -36.9869 22507.7
 12 06 2015  10 31  -14.4437 17978.8 -13541.4 -36.9866 22507.9
 12 06 2015  10 32  -14.4433 17978.7 -13541.2 -36.9863 22507.8
 12 06 2015  10 33  -14.4433 17978.6 -13541.4 -36.9867 22507.8
 12 06 2015  10 34  -14.4432 17979.0 -13541.7 -36.9869 22508.2
 12 06 2015  10 35  -14.4431 17979.0 -13541.5 -36.9864 22508.2
 12 06 2015  10 36  -14.4432 17979.0 -13541.6 -36.9865 22508.2
 12 06 2015  10 37  -14.4431 17979.2 -13541.1 -36.9853 22508.0
 12 06 2015  10 38  -14.4420 17979.5 -13541.3 -36.9852 22508.5
 12 06 2015  10 39  -14.4419 17979.9 -13541.5 -36.9850 22508.9
 12 06 2015  10 40  -14.4409 17979.8 -13541.3 -36.9848 22508.7
 12 06 2015  10 41  -14.4409 17980.1 -13541.3 -36.9844 22508.9
 12 06 2015  10 42  -14.4410 17980.1 -13541.1 -36.9839 22508.8
 12 06 2015  10 43  -14.4411 17979.9 -13541.4 -36.9847 22508.8
 12 06 2015  10 44  -14.4410 17980.1 -13541.4 -36.9845 22509.0
 12 06 2015  10 45  -14.4406 17980.0 -13541.1 -36.9840 22508.8
 12 06 2015  10 46  -14.4403 17980.1 -13541.3 -36.9842 22508.9
 12 06 2015  10 47  -14.4402 17980.6 -13541.0 -36.9829 22509.2
 12 06 2015  10 48  -14.4396 17980.8 -13541.5 -36.9836 22509.6
 12 06 2015  10 49  -14.4398 17980.5 -13540.8 -36.9827 22508.9
 12 06 2015  10 50  -14.4393 17980.7 -13541.5 -36.9838 22509.6
 12 06 2015  10 51  -14.4388 17981.1 -13541.1 -36.9824 22509.6
 12 06 2015  10 52  -14.4386 17980.8 -13541.1 -36.9829 22509.4
 12 06 2015  10 53  -14.4383 17980.9 -13540.8 -36.9820 22509.2
 12 06 2015  10 54  -14.4390 17981.0 -13541.3 -36.9829 22509.6
 12 06 2015  10 55  -14.4398 17980.8 -13540.8 -36.9823 22509.2
 12 06 2015  10 56  -14.4400 17980.8 -13541.0 -36.9826 22509.3
 12 06 2015  10 57  -14.4401 17980.8 -13541.1 -36.9829 22509.3
 12 06 2015  10 58  -14.4396 17980.7 -13541.1 -36.9829 22509.2
 12 06 2015  10 59  -14.4399 17980.7 -13540.8 -36.9824 22509.1
 12 06 2015  11 00  -14.4406 17980.5 -13541.6 -36.9843 22509.4
 12 06 2015  11 01  -14.4416 17980.5 -13541.4 -36.9838 22509.3
 12 06 2015  11 02  -14.4424 17980.2 -13540.7 -36.9829 22508.6
 12 06 2015  11 03  -14.4432 17980.5 -13541.1 -36.9833 22509.1
 12 06 2015  11 04  -14.4431 17980.8 -13541.2 -36.9830 22509.4
 12 06 2015  11 05  -14.4424 17981.0 -13541.2 -36.9828 22509.6
 12 06 2015  11 06  -14.4413 17981.2 -13541.2 -36.9825 22509.7
 12 06 2015  11 07  -14.4412 17981.2 -13541.4 -36.9829 22509.9
 12 06 2015  11 08  -14.4410 17981.5 -13541.2 -36.9819 22510.0
 12 06 2015  11 09  -14.4411 17981.7 -13541.3 -36.9820 22510.2
 12 06 2015  11 10  -14.4408 17981.6 -13541.0 -36.9814 22509.9
 12 06 2015  11 11  -14.4413 17981.4 -13541.2 -36.9822 22509.8
 12 06 2015  11 12  -14.4416 17981.7 -13541.4 -36.9822 22510.2
 12 06 2015  11 13  -14.4410 17982.1 -13541.0 -36.9805 22510.3
 12 06 2015  11 14  -14.4406 17982.3 -13541.1 -36.9805 22510.6
 12 06 2015  11 15  -14.4404 17982.6 -13541.0 -36.9798 22510.7
 12 06 2015  11 16  -14.4408 17982.8 -13541.0 -36.9796 22510.8
 12 06 2015  11 17  -14.4417 17982.2 -13540.9 -36.9803 22510.3
 12 06 2015  11 18  -14.4419 17982.4 -13540.9 -36.9800 22510.5
 12 06 2015  11 19  -14.4432 17982.6 -13541.0 -36.9799 22510.8
 12 06 2015  11 20  -14.4439 17982.8 -13540.6 -36.9788 22510.6
 12 06 2015  11 21  -14.4434 17982.9 -13540.6 -36.9786 22510.7
 12 06 2015  11 22  -14.4436 17983.0 -13540.7 -36.9786 22510.8
 12 06 2015  11 23  -14.4440 17982.5 -13540.7 -36.9795 22510.4
 12 06 2015  11 24  -14.4442 17982.7 -13541.0 -36.9796 22510.8
 12 06 2015  11 25  -14.4446 17983.2 -13541.1 -36.9791 22511.3
 12 06 2015  11 26  -14.4452 17982.9 -13540.7 -36.9787 22510.8
 12 06 2015  11 27  -14.4456 17983.2 -13541.3 -36.9795 22511.4
 12 06 2015  11 28  -14.4451 17983.6 -13541.1 -36.9786 22511.6
 12 06 2015  11 29  -14.4455 17983.5 -13541.1 -36.9788 22511.5
 12 06 2015  11 30  -14.4459 17983.4 -13541.2 -36.9791 22511.5
 12 06 2015  11 31  -14.4467 17983.7 -13541.3 -36.9789 22511.8
 12 06 2015  11 32  -14.4469 17984.0 -13541.2 -36.9782 22512.0
 12 06 2015  11 33  -14.4471 17984.1 -13540.8 -36.9771 22511.8
 12 06 2015  11 34  -14.4464 17984.2 -13540.9 -36.9771 22512.0
 12 06 2015  11 35  -14.4466 17984.3 -13540.7 -36.9768 22511.9
 12 06 2015  11 36  -14.4463 17984.1 -13540.8 -36.9770 22511.8
 12 06 2015  11 37  -14.4468 17984.5 -13541.1 -36.9772 22512.3
 12 06 2015  11 38  -14.4468 17984.4 -13540.8 -36.9767 22512.1
 12 06 2015  11 39  -14.4472 17984.3 -13541.0 -36.9772 22512.1
 12 06 2015  11 40  -14.4476 17984.5 -13541.0 -36.9771 22512.2
 12 06 2015  11 41  -14.4482 17984.4 -13540.6 -36.9764 22511.9
 12 06 2015  11 42  -14.4484 17984.9 -13540.4 -36.9751 22512.2
 12 06 2015  11 43  -14.4496 17984.4 -13541.0 -36.9771 22512.2
 12 06 2015  11 44  -14.4494 17984.4 -13540.8 -36.9767 22512.0
 12 06 2015  11 45  -14.4498 17984.4 -13541.1 -36.9775 22512.2
 12 06 2015  11 46  -14.4500 17984.3 -13540.4 -36.9761 22511.7
 12 06 2015  11 47  -14.4495 17985.0 -13541.2 -36.9768 22512.8
 12 06 2015  11 48  -14.4501 17985.0 -13541.4 -36.9771 22512.9
 12 06 2015  11 49  -14.4515 17984.1 -13540.4 -36.9762 22511.6
 12 06 2015  11 50  -14.4518 17985.3 -13540.6 -36.9749 22512.7
 12 06 2015  11 51  -14.4525 17985.2 -13539.7 -36.9733 22512.0
 12 06 2015  11 52  -14.4512 17985.8 -13540.6 -36.9741 22513.0
 12 06 2015  11 53  -14.4503 17986.0 -13540.3 -36.9732 22513.0
 12 06 2015  11 54  -14.4520 17986.0 -13540.1 -36.9728 22512.9
 12 06 2015  11 55  -14.4520 17986.0 -13539.6 -36.9719 22512.6
 12 06 2015  11 56  -14.4535 17986.1 -13540.3 -36.9730 22513.1
 12 06 2015  11 57  -14.4544 17986.1 -13539.9 -36.9723 22512.8
 12 06 2015  11 58  -14.4546 17986.5 -13539.4 -36.9706 22512.9
 12 06 2015  11 59  -14.4553 17987.3 -13539.3 -36.9692 22513.4
 12 06 2015  12 00  -14.4554 17986.8 -13539.4 -36.9702 22513.2
 12 06 2015  12 01  -14.4557 17987.2 -13539.0 -36.9688 22513.2
 12 06 2015  12 02  -14.4567 17986.7 -13539.7 -36.9709 22513.2
 12 06 2015  12 03  -14.4577 17987.4 -13539.2 -36.9689 22513.5
 12 06 2015  12 04  -14.4575 17987.6 -13539.4 -36.9690 22513.7
 12 06 2015  12 05  -14.4579 17987.9 -13538.7 -36.9672 22513.6
 12 06 2015  12 06  -14.4585 17987.8 -13538.4 -36.9667 22513.4
 12 06 2015  12 07  -14.4586 17988.7 -13538.8 -36.9661 22514.3
 12 06 2015  12 08  -14.4583 17988.6 -13537.8 -36.9642 22513.6
 12 06 2015  12 09  -14.4589 17988.5 -13538.5 -36.9657 22514.0
 12 06 2015  12 10  -14.4589 17988.8 -13538.0 -36.9644 22513.9
 12 06 2015  12 11  -14.4595 17988.5 -13538.4 -36.9656 22513.9
 12 06 2015  12 12  -14.4604 17988.4 -13537.6 -36.9641 22513.3
 12 06 2015  12 13  -14.4603 17988.8 -13537.4 -36.9631 22513.6
 12 06 2015  12 14  -14.4603 17989.2 -13537.1 -36.9618 22513.7
 12 06 2015  12 15  -14.4602 17989.6 -13537.9 -36.9627 22514.5
 12 06 2015  12 16  -14.4614 17989.0 -13537.7 -36.9634 22513.9
 12 06 2015  12 17  -14.4606 17989.8 -13537.6 -36.9619 22514.5
 12 06 2015  12 18  -14.4607 17989.7 -13537.5 -36.9618 22514.3
 12 06 2015  12 19  -14.4613 17989.5 -13536.4 -36.9600 22513.5
 12 06 2015  12 20  -14.4604 17990.6 -13536.9 -36.9594 22514.7
 12 06 2015  12 21  -14.4619 17989.8 -13536.4 -36.9595 22513.7
 12 06 2015  12 22  -14.4620 17990.1 -13536.7 -36.9597 22514.1
 12 06 2015  12 23  -14.4618 17990.0 -13536.6 -36.9596 22514.0
 12 06 2015  12 24  -14.4613 17990.4 -13536.9 -36.9596 22514.5
 12 06 2015  12 25  -14.4611 17990.9 -13536.7 -36.9584 22514.8
 12 06 2015  12 26  -14.4612 17991.0 -13536.1 -36.9570 22514.5
 12 06 2015  12 27  -14.4605 17991.3 -13535.9 -36.9562 22514.6
 12 06 2015  12 28  -14.4601 17991.6 -13535.8 -36.9556 22514.7
 12 06 2015  12 29  -14.4608 17991.1 -13535.7 -36.9562 22514.3
 12 06 2015  12 30  -14.4602 17991.1 -13535.8 -36.9564 22514.4
 12 06 2015  12 31  -14.4624 17989.6 -13535.5 -36.9579 22513.0
 12 06 2015  12 32  -14.4620 17990.2 -13535.1 -36.9562 22513.3
 12 06 2015  12 33  -14.4628 17990.6 -13535.3 -36.9561 22513.7
 12 06 2015  12 34  -14.4645 17990.0 -13535.1 -36.9566 22513.1
 12 06 2015  12 35  -14.4636 17991.0 -13535.1 -36.9550 22513.9
 12 06 2015  12 36  -14.4648 17990.7 -13534.6 -36.9546 22513.3
 12 06 2015  12 37  -14.4636 17991.3 -13535.5 -36.9555 22514.3
 12 06 2015  12 38  -14.4639 17991.3 -13534.3 -36.9530 22513.7
 12 06 2015  12 39  -14.4638 17991.2 -13534.7 -36.9539 22513.7
 12 06 2015  12 40  -14.4621 17992.2 -13535.2 -36.9534 22514.9
 12 06 2015  12 41  -14.4621 17992.1 -13534.2 -36.9514 22514.2
 12 06 2015  12 42  -14.4617 17992.0 -13533.5 -36.9501 22513.8
 12 06 2015  12 43  -14.4610 17992.2 -13534.1 -36.9512 22514.2
 12 06 2015  12 44  -14.4618 17991.6 -13534.4 -36.9526 22514.0
 12 06 2015  12 45  -14.4614 17991.8 -13533.9 -36.9513 22513.8
 12 06 2015  12 46  -14.4618 17991.3 -13534.4 -36.9531 22513.7
 12 06 2015  12 47  -14.4618 17992.1 -13533.9 -36.9510 22514.0
 12 06 2015  12 48  -14.4633 17991.2 -13534.3 -36.9530 22513.6
 12 06 2015  12 49  -14.4627 17991.7 -13534.4 -36.9525 22514.0
 12 06 2015  12 50  -14.4639 17991.4 -13533.7 -36.9516 22513.4
 12 06 2015  12 51  -14.4627 17992.9 -13534.8 -36.9515 22515.3
 12 06 2015  12 52  -14.4636 17991.7 -13533.9 -36.9515 22513.8
 12 06 2015  12 53  -14.4639 17991.7 -13534.0 -36.9517 22513.8
 12 06 2015  12 54  -14.4640 17992.0 -13534.4 -36.9521 22514.3
 12 06 2015  12 55  -14.4643 17992.6 -13534.0 -36.9503 22514.5
 12 06 2015  12 56  -14.4640 17992.8 -13533.8 -36.9496 22514.6
 12 06 2015  12 57  -14.4631 17993.4 -13534.2 -36.9495 22515.2
 12 06 2015  12 58  -14.4627 17994.1 -13533.9 -36.9480 22515.6
 12 06 2015  12 59  -14.4628 17994.3 -13534.0 -36.9477 22515.9
 12 06 2015  13 00  -14.4622 17994.9 -13533.7 -36.9463 22516.2
 12 06 2015  13 01  -14.4615 17994.4 -13533.5 -36.9465 22515.7
 12 06 2015  13 02  -14.4606 17995.4 -13533.7 -36.9453 22516.6
 12 06 2015  13 03  -14.4608 17995.2 -13533.5 -36.9454 22516.3
 12 06 2015  13 04  -14.4608 17995.5 -13533.5 -36.9450 22516.5
 12 06 2015  13 05  -14.4611 17995.6 -13533.5 -36.9447 22516.6
 12 06 2015  13 06  -14.4608 17995.6 -13533.9 -36.9454 22516.9
 12 06 2015  13 07  -14.4591 17998.9 -13534.3 -36.9412 22519.7
 12 06 2015  13 08  -14.4556 18002.0 -13534.8 -36.9374 22522.5
 12 06 2015  13 09  -14.4505 18005.6 -13535.1 -36.9327 22525.6
 12 06 2015  13 10  -14.4469 18007.7 -13534.9 -36.9291 22527.1
 12 06 2015  13 11  -14.4439 18008.5 -13534.3 -36.9266 22527.4
 12 06 2015  13 12  -14.4444 18009.3 -13534.6 -36.9261 22528.3
 12 06 2015  13 13  -14.4435 18010.6 -13533.6 -36.9220 22528.6
 12 06 2015  13 14  -14.4430 18010.3 -13533.2 -36.9215 22528.2
 12 06 2015  13 15  -14.4423 18009.7 -13532.3 -36.9206 22527.1
 12 06 2015  13 16  -14.4424 18009.5 -13532.1 -36.9206 22526.8
 12 06 2015  13 17  -14.4420 18009.5 -13532.0 -36.9203 22526.8
 12 06 2015  13 18  -14.4430 18010.1 -13532.9 -36.9213 22527.8
 12 06 2015  13 19  -14.4438 18010.7 -13533.0 -36.9207 22528.3
 12 06 2015  13 20  -14.4438 18010.3 -13533.1 -36.9214 22528.1
 12 06 2015  13 21  -14.4448 18009.6 -13532.9 -36.9221 22527.4
 12 06 2015  13 22  -14.4450 18009.6 -13532.6 -36.9216 22527.2
 12 06 2015  13 23  -14.4449 18010.0 -13533.2 -36.9222 22527.9
 12 06 2015  13 24  -14.4441 18010.7 -13533.9 -36.9225 22528.9
 12 06 2015  13 25  -14.4438 18011.4 -13533.6 -36.9208 22529.3
 12 06 2015  13 26  -14.4430 18011.1 -13534.1 -36.9222 22529.4
 12 06 2015  13 27  -14.4430 18010.8 -13533.7 -36.9219 22528.9
 12 06 2015  13 28  -14.4426 18010.6 -13533.9 -36.9226 22528.8
 12 06 2015  13 29  -14.4428 18009.7 -13534.0 -36.9241 22528.2
 12 06 2015  13 30  -14.4430 18009.0 -13533.6 -36.9243 22527.4
 12 06 2015  13 31  -14.4436 18008.7 -13534.0 -36.9257 22527.4
 12 06 2015  13 32  -14.4460 18007.8 -13533.8 -36.9267 22526.5
 12 06 2015  13 33  -14.4487 18007.1 -13533.5 -36.9271 22525.8
 12 06 2015  13 34  -14.4510 18006.5 -13533.9 -36.9289 22525.6
 12 06 2015  13 35  -14.4521 18006.1 -13534.0 -36.9296 22525.3
 12 06 2015  13 36  -14.4520 18006.7 -13534.8 -36.9303 22526.2
 12 06 2015  13 37  -14.4542 18006.4 -13534.4 -36.9299 22525.8
 12 06 2015  13 38  -14.4560 18005.7 -13534.3 -36.9309 22525.2
 12 06 2015  13 39  -14.4568 18006.0 -13534.1 -36.9301 22525.3
 12 06 2015  13 40  -14.4577 18006.4 -13534.5 -36.9302 22525.8
 12 06 2015  13 41  -14.4577 18007.4 -13534.5 -36.9287 22526.6
 12 06 2015  13 42  -14.4568 18007.5 -13534.3 -36.9282 22526.6
 12 06 2015  13 43  -14.4553 18009.2 -13535.3 -36.9275 22528.6
 12 06 2015  13 44  -14.4556 18009.0 -13535.2 -36.9276 22528.3
 12 06 2015  13 45  -14.4558 18008.9 -13535.0 -36.9274 22528.1
 12 06 2015  13 46  -14.4551 18007.9 -13534.4 -36.9278 22527.0
 12 06 2015  13 47  -14.4536 18007.9 -13534.1 -36.9272 22526.8
 12 06 2015  13 48  -14.4526 18007.7 -13534.1 -36.9274 22526.6
 12 06 2015  13 49  -14.4527 18007.2 -13534.7 -36.9294 22526.5
 12 06 2015  13 50  -14.4544 18006.3 -13533.6 -36.9286 22525.3
 12 06 2015  13 51  -14.4557 18005.8 -13534.8 -36.9318 22525.5
 12 06 2015  13 52  -14.4564 18006.9 -13534.4 -36.9294 22526.2
 12 06 2015  13 53  -14.4570 18007.1 -13534.9 -36.9299 22526.6
 12 06 2015  13 54  -14.4568 18007.8 -13534.9 -36.9290 22527.2
 12 06 2015  13 55  -14.4553 18009.2 -13534.6 -36.9262 22528.2
 12 06 2015  13 56  -14.4526 18010.9 -13535.5 -36.9254 22530.1
 12 06 2015  13 57  -14.4506 18011.8 -13535.0 -36.9231 22530.5
 12 06 2015  13 58  -14.4487 18012.5 -13534.4 -36.9207 22530.7
 12 06 2015  13 59  -14.4472 18013.0 -13534.8 -36.9208 22531.3
 12 06 2015  14 00  -14.4465 18012.6 -13534.0 -36.9198 22530.5
 12 06 2015  14 01  -14.4465 18012.0 -13533.9 -36.9204 22529.9
 12 06 2015  14 02  -14.4476 18011.6 -13533.7 -36.9206 22529.5
 12 06 2015  14 03  -14.4483 18011.7 -13533.5 -36.9203 22529.5
 12 06 2015  14 04  -14.4487 18011.9 -13533.5 -36.9199 22529.6
 12 06 2015  14 05  -14.4474 18013.3 -13534.4 -36.9196 22531.3
 12 06 2015  14 06  -14.4466 18013.6 -13533.4 -36.9170 22530.9
 12 06 2015  14 07  -14.4448 18014.3 -13534.0 -36.9172 22531.9
 12 06 2015  14 08  -14.4439 18014.5 -13534.0 -36.9168 22532.0
 12 06 2015  14 09  -14.4442 18014.6 -13532.8 -36.9144 22531.4
 12 06 2015  14 10  -14.4441 18015.3 -13532.6 -36.9128 22531.8
 12 06 2015  14 11  -14.4428 18016.1 -13532.6 -36.9116 22532.4
 12 06 2015  14 12  -14.4414 18016.7 -13532.7 -36.9108 22533.0
 12 06 2015  14 13  -14.4399 18017.1 -13533.1 -36.9110 22533.6
 12 06 2015  14 14  -14.4389 18017.3 -13532.7 -36.9098 22533.5
 12 06 2015  14 15  -14.4392 18016.8 -13532.5 -36.9101 22533.0
 12 06 2015  14 16  -14.4402 18016.6 -13532.4 -36.9105 22532.7
 12 06 2015  14 17  -14.4404 18016.7 -13532.5 -36.9104 22532.8
 12 06 2015  14 18  -14.4402 18016.7 -13532.1 -36.9096 22532.6
 12 06 2015  14 19  -14.4400 18016.7 -13532.9 -36.9111 22533.1
 12 06 2015  14 20  -14.4398 18016.9 -13532.0 -36.9091 22532.7
 12 06 2015  14 21  -14.4393 18017.0 -13532.3 -36.9096 22533.0
 12 06 2015  14 22  -14.4398 18016.6 -13532.0 -36.9097 22532.5
 12 06 2015  14 23  -14.4399 18016.5 -13532.8 -36.9114 22532.8
 12 06 2015  14 24  -14.4400 18016.9 -13532.2 -36.9096 22532.8
 12 06 2015  14 25  -14.4412 18016.6 -13532.0 -36.9096 22532.5
 12 06 2015  14 26  -14.4425 18015.4 -13532.1 -36.9116 22531.5
 12 06 2015  14 27  -14.4426 18014.4 -13531.1 -36.9112 22530.2
 12 06 2015  14 28  -14.4421 18013.8 -13532.0 -36.9137 22530.2
 12 06 2015  14 29  -14.4419 18013.7 -13532.7 -36.9156 22530.6
 12 06 2015  14 30  -14.4416 18013.5 -13532.6 -36.9156 22530.4
 12 06 2015  14 31  -14.4419 18012.9 -13532.6 -36.9164 22529.9
 12 06 2015  14 32  -14.4419 18012.7 -13532.2 -36.9159 22529.4
 12 06 2015  14 33  -14.4414 18012.7 -13532.3 -36.9162 22529.5
 12 06 2015  14 34  -14.4406 18013.2 -13532.5 -36.9157 22530.0
 12 06 2015  14 35  -14.4407 18013.6 -13532.1 -36.9144 22530.1
 12 06 2015  14 36  -14.4409 18013.4 -13532.2 -36.9148 22530.1
 12 06 2015  14 37  -14.4414 18012.7 -13532.1 -36.9157 22529.4
 12 06 2015  14 38  -14.4424 18011.1 -13532.0 -36.9181 22528.1
 12 06 2015  14 39  -14.4436 18009.4 -13530.9 -36.9182 22526.1
 12 06 2015  14 40  -14.4436 18007.9 -13531.3 -36.9216 22525.1
 12 06 2015  14 41  -14.4437 18006.9 -13530.7 -36.9217 22523.9
 12 06 2015  14 42  -14.4432 18006.2 -13531.2 -36.9238 22523.7
 12 06 2015  14 43  -14.4429 18005.8 -13531.5 -36.9251 22523.6
 12 06 2015  14 44  -14.4431 18006.2 -13531.3 -36.9241 22523.8
 12 06 2015  14 45  -14.4431 18006.8 -13532.1 -36.9248 22524.7
 12 06 2015  14 46  -14.4430 18007.8 -13532.3 -36.9237 22525.6
 12 06 2015  14 47  -14.4427 18008.0 -13531.9 -36.9224 22525.6
 12 06 2015  14 48  -14.4420 18008.2 -13532.1 -36.9227 22525.9
 12 06 2015  14 49  -14.4412 18008.3 -13532.0 -36.9223 22525.8
 12 06 2015  14 50  -14.4407 18008.2 -13531.6 -36.9215 22525.5
 12 06 2015  14 51  -14.4400 18008.2 -13530.9 -36.9203 22525.1
 12 06 2015  14 52  -14.4401 18008.0 -13531.4 -36.9216 22525.3
 12 06 2015  14 53  -14.4401 18007.9 -13531.0 -36.9209 22524.9
 12 06 2015  14 54  -14.4407 18007.4 -13530.9 -36.9213 22524.5
 12 06 2015  14 55  -14.4408 18007.0 -13530.4 -36.9211 22523.9
 12 06 2015  14 56  -14.4398 18007.2 -13530.5 -36.9209 22524.1
 12 06 2015  14 57  -14.4399 18007.1 -13530.5 -36.9212 22524.0
 12 06 2015  14 58  -14.4390 18007.5 -13530.3 -36.9201 22524.2
 12 06 2015  14 59  -14.4382 18008.1 -13530.3 -36.9190 22524.7
 12 06 2015  15 00  -14.4386 18007.8 -13530.1 -36.9191 22524.3
 12 06 2015  15 01  -14.4383 18007.8 -13529.9 -36.9188 22524.2
 12 06 2015  15 02  -14.4386 18008.1 -13529.6 -36.9177 22524.2
 12 06 2015  15 03  -14.4386 18008.2 -13529.0 -36.9164 22524.0
 12 06 2015  15 04  -14.4389 18007.9 -13528.9 -36.9166 22523.6
 12 06 2015  15 05  -14.4392 18007.4 -13528.1 -36.9156 22522.8
 12 06 2015  15 06  -14.4388 18007.1 -13528.3 -36.9166 22522.7
 12 06 2015  15 07  -14.4379 18006.7 -13528.3 -36.9171 22522.4
 12 06 2015  15 08  -14.4378 18006.2 -13528.5 -36.9183 22522.0
 12 06 2015  15 09  -14.4399 18005.1 -13527.4 -36.9177 22520.5
 12 06 2015  15 10  -14.4399 18004.3 -13527.3 -36.9189 22519.8
 12 06 2015  15 11  -14.4404 18003.3 -13528.0 -36.9218 22519.4
 12 06 2015  15 12  -14.4424 18002.2 -13528.0 -36.9235 22518.6
 12 06 2015  15 13  -14.4442 18001.3 -13527.3 -36.9233 22517.4
 12 06 2015  15 14  -14.4453 18000.6 -13527.9 -36.9255 22517.2
 12 06 2015  15 15  -14.4455 18000.8 -13528.6 -36.9269 22517.8
 12 06 2015  15 16  -14.4468 18000.2 -13527.7 -36.9259 22516.8
 12 06 2015  15 17  -14.4476 17999.9 -13528.2 -36.9274 22516.9
 12 06 2015  15 18  -14.4481 18000.3 -13528.2 -36.9268 22517.2
 12 06 2015  15 19  -14.4491 18000.0 -13528.5 -36.9278 22517.1
 12 06 2015  15 20  -14.4489 18000.3 -13528.4 -36.9272 22517.3
 12 06 2015  15 21  -14.4476 18001.4 -13529.4 -36.9274 22518.8
 12 06 2015  15 22  -14.4477 18001.5 -13529.0 -36.9266 22518.6
 12 06 2015  15 23  -14.4471 18001.9 -13529.4 -36.9268 22519.1
 12 06 2015  15 24  -14.4471 18002.5 -13529.2 -36.9256 22519.5
 12 06 2015  15 25  -14.4427 18008.7 -13530.8 -36.9192 22525.5
 12 06 2015  15 26  -14.4432 18008.3 -13530.2 -36.9186 22524.8
 12 06 2015  15 27  -14.4397 18010.1 -13530.3 -36.9159 22526.3
 12 06 2015  15 28  -14.4373 18010.7 -13530.0 -36.9145 22526.5
 12 06 2015  15 29  -14.4364 18009.8 -13529.7 -36.9152 22525.7
 12 06 2015  15 30  -14.4348 18010.1 -13529.5 -36.9145 22525.8
 12 06 2015  15 31  -14.4327 18011.9 -13529.8 -36.9123 22527.5
 12 06 2015  15 32  -14.4319 18011.9 -13529.5 -36.9118 22527.2
 12 06 2015  15 33  -14.4301 18012.7 -13529.5 -36.9106 22527.9
 12 06 2015  15 34  -14.4299 18012.2 -13529.2 -36.9105 22527.3
 12 06 2015  15 35  -14.4304 18009.2 -13528.2 -36.9131 22524.3
 12 06 2015  15 36  -14.4293 18008.4 -13528.1 -36.9142 22523.6
 12 06 2015  15 37  -14.4300 18007.5 -13528.1 -36.9155 22522.8
 12 06 2015  15 38  -14.4311 18007.4 -13528.4 -36.9164 22523.0
 12 06 2015  15 39  -14.4321 18006.5 -13527.9 -36.9167 22522.0
 12 06 2015  15 40  -14.4314 18006.3 -13527.9 -36.9171 22521.8
 12 06 2015  15 41  -14.4319 18005.6 -13527.9 -36.9181 22521.2
 12 06 2015  15 42  -14.4331 18004.6 -13528.2 -36.9201 22520.6
 12 06 2015  15 43  -14.4333 18004.6 -13528.2 -36.9201 22520.6
 12 06 2015  15 44  -14.4338 18003.7 -13528.6 -36.9224 22520.1
 12 06 2015  15 45  -14.4345 18003.0 -13527.7 -36.9216 22519.1
 12 06 2015  15 46  -14.4357 18003.1 -13527.4 -36.9207 22518.9
 12 06 2015  15 47  -14.4359 18003.2 -13528.4 -36.9229 22519.6
 12 06 2015  15 48  -14.4351 18003.5 -13528.9 -36.9233 22520.2
 12 06 2015  15 49  -14.4348 18003.6 -13528.9 -36.9233 22520.2
 12 06 2015  15 50  -14.4350 18003.6 -13528.5 -36.9224 22520.0
 12 06 2015  15 51  -14.4357 18002.8 -13528.3 -36.9231 22519.2
 12 06 2015  15 52  -14.4358 18002.6 -13528.4 -36.9236 22519.1
 12 06 2015  15 53  -14.4355 18002.5 -13529.0 -36.9250 22519.4
 12 06 2015  15 54  -14.4346 18003.7 -13528.9 -36.9230 22520.3
 12 06 2015  15 55  -14.4331 18004.4 -13530.0 -36.9241 22521.6
 12 06 2015  15 56  -14.4316 18004.5 -13529.4 -36.9227 22521.3
 12 06 2015  15 57  -14.4292 18004.6 -13529.7 -36.9233 22521.5
 12 06 2015  15 58  -14.4275 18004.5 -13529.9 -36.9238 22521.5
 12 06 2015  15 59  -14.4266 18004.2 -13530.2 -36.9248 22521.4
 12 06 2015  16 00  -14.4260 18004.3 -13530.3 -36.9248 22521.6
 12 06 2015  16 01  -14.4248 18004.3 -13530.7 -36.9258 22521.8
 12 06 2015  16 02  -14.4229 18005.7 -13530.8 -36.9237 22523.0
 12 06 2015  16 03  -14.4225 18005.3 -13530.6 -36.9240 22522.6
 12 06 2015  16 04  -14.4207 18005.9 -13530.7 -36.9233 22523.2
 12 06 2015  16 05  -14.4190 18006.1 -13530.6 -36.9227 22523.2
 12 06 2015  16 06  -14.4176 18006.4 -13531.4 -36.9238 22524.0
 12 06 2015  16 07  -14.4171 18007.1 -13531.1 -36.9224 22524.4
 12 06 2015  16 08  -14.4176 18006.3 -13531.0 -36.9233 22523.6
 12 06 2015  16 09  -14.4158 18006.8 -13531.4 -36.9234 22524.3
 12 06 2015  16 10  -14.4159 18007.3 -13532.1 -36.9239 22525.1
 12 06 2015  16 11  -14.4175 18007.2 -13531.0 -36.9218 22524.4
 12 06 2015  16 12  -14.4168 18008.4 -13531.4 -36.9209 22525.6
 12 06 2015  16 13  -14.4168 18009.0 -13531.3 -36.9197 22526.0
 12 06 2015  16 14  -14.4160 18009.0 -13530.9 -36.9190 22525.8
 12 06 2015  16 15  -14.4156 18010.0 -13531.4 -36.9184 22526.8
 12 06 2015  16 16  -14.4162 18010.3 -13531.0 -36.9171 22526.9
 12 06 2015  16 17  -14.4181 18009.1 -13530.8 -36.9185 22525.8
 12 06 2015  16 18  -14.4185 18008.0 -13530.5 -36.9196 22524.7
 12 06 2015  16 19  -14.4182 18008.3 -13530.5 -36.9192 22524.9
 12 06 2015  16 20  -14.4201 18007.6 -13530.5 -36.9203 22524.4
 12 06 2015  16 21  -14.4212 18006.9 -13530.6 -36.9214 22523.9
 12 06 2015  16 22  -14.4228 18006.4 -13530.8 -36.9228 22523.6
 12 06 2015  16 23  -14.4241 18005.0 -13530.5 -36.9244 22522.3
 12 06 2015  16 24  -14.4249 18004.7 -13530.6 -36.9250 22522.1
 12 06 2015  16 25  -14.4260 18004.1 -13531.0 -36.9267 22521.9
 12 06 2015  16 26  -14.4271 18004.0 -13531.1 -36.9269 22521.9
 12 06 2015  16 27  -14.4284 18003.6 -13530.7 -36.9268 22521.3
 12 06 2015  16 28  -14.4271 18004.1 -13531.2 -36.9271 22522.0
 12 06 2015  16 29  -14.4286 18003.5 -13531.2 -36.9279 22521.5
 12 06 2015  16 30  -14.4293 18002.7 -13531.1 -36.9289 22520.8
 12 06 2015  16 31  -14.4288 18002.3 -13531.2 -36.9297 22520.5
 12 06 2015  16 32  -14.4278 18002.2 -13531.0 -36.9296 22520.4
 12 06 2015  16 33  -14.4302 18000.6 -13530.6 -36.9312 22518.9
 12 06 2015  16 34  -14.4317 18000.0 -13531.7 -36.9343 22519.0
 12 06 2015  16 35  -14.4304 18000.6 -13531.3 -36.9327 22519.3
 12 06 2015  16 36  -14.4287 18001.0 -13532.1 -36.9336 22520.1
 12 06 2015  16 37  -14.4286 18001.0 -13531.8 -36.9331 22519.9
 12 06 2015  16 38  -14.4299 18000.7 -13531.5 -36.9329 22519.5
 12 06 2015  16 39  -14.4318 18000.3 -13531.3 -36.9331 22519.0
 12 06 2015  16 40  -14.4326 18000.2 -13531.5 -36.9337 22519.1
 12 06 2015  16 41  -14.4336 17999.8 -13531.6 -36.9344 22518.8
 12 06 2015  16 42  -14.4361 17998.6 -13531.2 -36.9356 22517.6
 12 06 2015  16 43  -14.4377 17998.0 -13531.4 -36.9368 22517.2
 12 06 2015  16 44  -14.4394 17997.7 -13531.2 -36.9369 22516.8
 12 06 2015  16 45  -14.4415 17996.6 -13530.8 -36.9377 22515.8
 12 06 2015  16 46  -14.4423 17996.2 -13531.6 -36.9399 22515.9
 12 06 2015  16 47  -14.4434 17996.2 -13531.2 -36.9390 22515.7
 12 06 2015  16 48  -14.4448 17996.4 -13531.9 -36.9402 22516.3
 12 06 2015  16 49  -14.4452 17996.5 -13531.9 -36.9401 22516.3
 12 06 2015  16 50  -14.4439 17997.0 -13532.4 -36.9404 22517.1
 12 06 2015  16 51  -14.4432 17997.7 -13532.5 -36.9393 22517.7
 12 06 2015  16 52  -14.4441 17998.2 -13531.4 -36.9365 22517.4
 12 06 2015  16 53  -14.4439 17998.3 -13532.1 -36.9377 22517.9
 12 06 2015  16 54  -14.4415 17999.3 -13532.7 -36.9375 22519.1
 12 06 2015  16 55  -14.4396 18000.3 -13532.3 -36.9351 22519.6
 12 06 2015  16 56  -14.4402 18000.5 -13531.6 -36.9334 22519.4
 12 06 2015  16 57  -14.4418 18000.1 -13532.1 -36.9349 22519.3
 12 06 2015  16 58  -14.4419 18000.2 -13531.3 -36.9332 22519.0
 12 06 2015  16 59  -14.4406 18000.8 -13531.4 -36.9325 22519.5
 12 06 2015  17 00  -14.4394 18001.3 -13532.3 -36.9337 22520.4
 12 06 2015  17 01  -14.4388 18001.5 -13532.8 -36.9341 22520.9
 12 06 2015  17 02  -14.4393 18001.4 -13532.1 -36.9330 22520.4
 12 06 2015  17 03  -14.4396 18001.3 -13532.1 -36.9332 22520.3
 12 06 2015  17 04  -14.4405 18000.5 -13531.5 -36.9332 22519.4
 12 06 2015  17 05  -14.4405 18000.5 -13531.7 -36.9337 22519.4
 12 06 2015  17 06  -14.4420 18000.1 -13531.6 -36.9341 22519.1
 12 06 2015  17 07  -14.4433 17999.2 -13531.5 -36.9353 22518.3
 12 06 2015  17 08  -14.4426 17999.8 -13531.7 -36.9346 22518.9
 12 06 2015  17 09  -14.4432 17999.7 -13532.0 -36.9353 22519.0
 12 06 2015  17 10  -14.4442 17998.2 -13532.1 -36.9379 22517.8
 12 06 2015  17 11  -14.4449 17997.4 -13531.9 -36.9387 22517.1
 12 06 2015  17 12  -14.4460 17997.6 -13532.6 -36.9399 22517.6
 12 06 2015  17 13  -14.4467 17997.5 -13532.3 -36.9394 22517.4
 12 06 2015  17 14  -14.4460 17997.9 -13532.2 -36.9386 22517.7
 12 06 2015  17 15  -14.4463 17997.3 -13532.6 -36.9403 22517.5
 12 06 2015  17 16  -14.4468 17996.9 -13532.4 -36.9405 22516.9
 12 06 2015  17 17  -14.4459 17997.2 -13532.9 -36.9411 22517.6
 12 06 2015  17 18  -14.4458 17997.6 -13532.8 -36.9403 22517.8
 12 06 2015  17 19  -14.4460 17997.5 -13533.0 -36.9407 22517.8
 12 06 2015  17 20  -14.4469 17996.9 -13532.7 -36.9412 22517.2
 12 06 2015  17 21  -14.4461 17997.5 -13533.1 -36.9410 22517.9
 12 06 2015  17 22  -14.4440 17999.0 -13533.3 -36.9393 22519.2
 12 06 2015  17 23  -14.4431 18000.0 -13533.9 -36.9388 22520.3
 12 06 2015  17 24  -14.4453 17999.0 -13533.4 -36.9393 22519.2
 12 06 2015  17 25  -14.4468 17998.2 -13532.8 -36.9394 22518.3
 12 06 2015  17 26  -14.4446 17998.6 -13533.7 -36.9404 22519.1
 12 06 2015  17 27  -14.4420 17999.0 -13534.1 -36.9406 22519.7
 12 06 2015  17 28  -14.4410 17998.7 -13533.4 -36.9399 22519.0
 12 06 2015  17 29  -14.4405 17998.5 -13532.9 -36.9390 22518.5
 12 06 2015  17 30  -14.4420 17998.5 -13533.9 -36.9411 22519.2
 12 06 2015  17 31  -14.4425 17997.9 -13533.8 -36.9419 22518.6
 12 06 2015  17 32  -14.4454 17995.4 -13533.4 -36.9448 22516.3
 12 06 2015  17 33  -14.4466 17993.7 -13532.3 -36.9451 22514.4
 12 06 2015  17 34  -14.4482 17991.2 -13532.9 -36.9503 22512.8
 12 06 2015  17 35  -14.4485 17989.9 -13532.2 -36.9507 22511.3
 12 06 2015  17 36  -14.4474 17989.1 -13533.0 -36.9536 22511.2
 12 06 2015  17 37  -14.4465 17989.3 -13533.7 -36.9549 22511.7
 12 06 2015  17 38  -14.4462 17991.0 -13534.4 -36.9536 22513.5
 12 06 2015  17 39  -14.4489 17991.6 -13534.2 -36.9523 22513.9
 12 06 2015  17 40  -14.4498 17991.2 -13534.4 -36.9534 22513.6
 12 06 2015  17 41  -14.4497 17989.8 -13534.3 -36.9553 22512.5
 12 06 2015  17 42  -14.4488 17989.2 -13534.1 -36.9559 22511.8
 12 06 2015  17 43  -14.4477 17989.1 -13534.4 -36.9565 22512.0
 12 06 2015  17 44  -14.4473 17989.9 -13535.0 -36.9566 22512.9
 12 06 2015  17 45  -14.4485 17989.5 -13535.0 -36.9571 22512.7
 12 06 2015  17 46  -14.4486 17990.0 -13535.2 -36.9568 22513.1
 12 06 2015  17 47  -14.4478 17991.1 -13535.0 -36.9547 22513.9
 12 06 2015  17 48  -14.4469 17991.7 -13535.3 -36.9543 22514.6
 12 06 2015  17 49  -14.4449 17992.6 -13535.8 -36.9540 22515.6
 12 06 2015  17 50  -14.4443 17993.1 -13535.0 -36.9515 22515.5
 12 06 2015  17 51  -14.4441 17992.6 -13535.0 -36.9523 22515.1
 12 06 2015  17 52  -14.4430 17993.2 -13535.7 -36.9529 22516.0
 12 06 2015  17 53  -14.4420 17994.1 -13535.6 -36.9512 22516.7
 12 06 2015  17 54  -14.4408 17995.2 -13535.7 -36.9498 22517.6
 12 06 2015  17 55  -14.4404 17995.7 -13535.9 -36.9494 22518.1
 12 06 2015  17 56  -14.4400 17995.9 -13536.0 -36.9493 22518.3
 12 06 2015  17 57  -14.4406 17995.2 -13534.9 -36.9482 22517.1
 12 06 2015  17 58  -14.4422 17993.5 -13534.7 -36.9504 22515.7
 12 06 2015  17 59  -14.4438 17991.1 -13534.3 -36.9532 22513.5
 12 06 2015  18 00  -14.4440 17989.6 -13533.7 -36.9542 22511.9
 12 06 2015  18 01  -14.4432 17990.1 -13534.1 -36.9544 22512.6
 12 06 2015  18 02  -14.4432 17991.1 -13535.3 -36.9552 22514.1
 12 06 2015  18 03  -14.4437 17991.6 -13535.2 -36.9544 22514.5
 12 06 2015  18 04  -14.4438 17992.0 -13535.8 -36.9549 22515.1
 12 06 2015  18 05  -14.4444 17991.8 -13534.4 -36.9523 22514.1
 12 06 2015  18 06  -14.4450 17991.5 -13535.2 -36.9545 22514.3
 12 06 2015  18 07  -14.4461 17990.7 -13534.8 -36.9548 22513.5
 12 06 2015  18 08  -14.4466 17990.8 -13534.8 -36.9547 22513.5
 12 06 2015  18 09  -14.4469 17991.0 -13534.7 -36.9543 22513.6
 12 06 2015  18 10  -14.4466 17992.2 -13534.8 -36.9525 22514.7
 12 06 2015  18 11  -14.4468 17993.2 -13535.3 -36.9521 22515.7
 12 06 2015  18 12  -14.4478 17993.4 -13534.7 -36.9506 22515.6
 12 06 2015  18 13  -14.4479 17993.8 -13533.7 -36.9480 22515.3
 12 06 2015  18 14  -14.4477 17994.3 -13535.2 -36.9501 22516.5
 12 06 2015  18 15  -14.4483 17994.4 -13533.9 -36.9473 22515.9
 12 06 2015  18 16  -14.4481 17995.0 -13534.3 -36.9472 22516.6
 12 06 2015  18 17  -14.4490 17995.0 -13533.6 -36.9459 22516.2
 12 06 2015  18 18  -14.4490 17995.1 -13534.0 -36.9465 22516.5
 12 06 2015  18 19  -14.4492 17995.0 -13534.6 -36.9479 22516.8
 12 06 2015  18 20  -14.4499 17994.8 -13534.1 -36.9472 22516.3
 12 06 2015  18 21  -14.4501 17994.8 -13533.6 -36.9460 22516.0
 12 06 2015  18 22  -14.4502 17995.1 -13533.7 -36.9459 22516.3
 12 06 2015  18 23  -14.4504 17995.3 -13533.8 -36.9459 22516.5
 12 06 2015  18 24  -14.4508 17995.3 -13534.2 -36.9466 22516.7
 12 06 2015  18 25  -14.4515 17995.0 -13533.4 -36.9455 22516.1
 12 06 2015  18 26  -14.4523 17994.1 -13534.3 -36.9487 22515.9
 12 06 2015  18 27  -14.4531 17993.0 -13533.9 -36.9496 22514.8
 12 06 2015  18 28  -14.4532 17992.6 -13534.0 -36.9502 22514.5
 12 06 2015  18 29  -14.4535 17993.0 -13533.6 -36.9488 22514.5
 12 06 2015  18 30  -14.4533 17993.6 -13533.8 -36.9484 22515.2
 12 06 2015  18 31  -14.4533 17994.2 -13534.9 -36.9497 22516.3
 12 06 2015  18 32  -14.4536 17994.4 -13534.3 -36.9482 22516.1
 12 06 2015  18 33  -14.4535 17994.3 -13534.3 -36.9484 22516.1
 12 06 2015  18 34  -14.4538 17994.1 -13534.3 -36.9486 22515.9
 12 06 2015  18 35  -14.4537 17993.8 -13534.8 -36.9501 22516.0
 12 06 2015  18 36  -14.4530 17993.8 -13534.7 -36.9499 22515.9
 12 06 2015  18 37  -14.4530 17993.5 -13534.6 -36.9502 22515.6
 12 06 2015  18 38  -14.4530 17993.6 -13534.8 -36.9505 22515.8
 12 06 2015  18 39  -14.4527 17993.6 -13535.4 -36.9517 22516.1
 12 06 2015  18 40  -14.4526 17993.1 -13535.0 -36.9516 22515.5
 12 06 2015  18 41  -14.4517 17993.1 -13535.2 -36.9521 22515.6
 12 06 2015  18 42  -14.4520 17992.5 -13535.2 -36.9529 22515.1
 12 06 2015  18 43  -14.4525 17991.6 -13535.2 -36.9543 22514.4
 12 06 2015  18 44  -14.4530 17990.9 -13535.3 -36.9556 22513.9
 12 06 2015  18 45  -14.4529 17990.3 -13535.4 -36.9566 22513.5
 12 06 2015  18 46  -14.4525 17989.9 -13536.2 -36.9589 22513.7
 12 06 2015  18 47  -14.4518 17990.0 -13536.2 -36.9589 22513.8
 12 06 2015  18 48  -14.4514 17989.7 -13536.7 -36.9602 22513.8
 12 06 2015  18 49  -14.4515 17989.6 -13536.8 -36.9606 22513.8
 12 06 2015  18 50  -14.4510 17990.1 -13536.6 -36.9596 22514.1
 12 06 2015  18 51  -14.4509 17990.3 -13537.1 -36.9602 22514.6
 12 06 2015  18 52  -14.4512 17989.8 -13537.4 -36.9615 22514.2
 12 06 2015  18 53  -14.4516 17988.9 -13537.2 -36.9625 22513.4
 12 06 2015  18 54  -14.4515 17988.5 -13537.2 -36.9631 22513.1
 12 06 2015  18 55  -14.4509 17988.4 -13537.2 -36.9631 22513.1
 12 06 2015  18 56  -14.4506 17988.7 -13537.4 -36.9631 22513.5
 12 06 2015  18 57  -14.4494 17989.3 -13537.9 -36.9633 22514.2
 12 06 2015  18 58  -14.4492 17988.9 -13538.0 -36.9642 22514.0
 12 06 2015  18 59  -14.4489 17988.9 -13538.1 -36.9644 22514.0
 12 06 2015  19 00  -14.4482 17989.6 -13538.2 -36.9636 22514.6
 12 06 2015  19 01  -14.4477 17989.6 -13538.4 -36.9639 22514.7
 12 06 2015  19 02  -14.4472 17989.5 -13538.5 -36.9641 22514.7
 12 06 2015  19 03  -14.4456 17991.0 -13538.9 -36.9628 22516.2
 12 06 2015  19 04  -14.4456 17992.1 -13539.2 -36.9616 22517.2
 12 06 2015  19 05  -14.4457 17992.2 -13538.8 -36.9607 22517.1
 12 06 2015  19 06  -14.4446 17992.3 -13539.0 -36.9610 22517.3
 12 06 2015  19 07  -14.4443 17992.8 -13538.9 -36.9601 22517.6
 12 06 2015  19 08  -14.4446 17992.9 -13539.5 -36.9609 22518.0
 12 06 2015  19 09  -14.4443 17993.0 -13538.8 -36.9595 22517.7
 12 06 2015  19 10  -14.4444 17992.9 -13538.9 -36.9598 22517.7
 12 06 2015  19 11  -14.4445 17993.0 -13539.4 -36.9607 22518.1
 12 06 2015  19 12  -14.4444 17993.4 -13539.6 -36.9606 22518.5
 12 06 2015  19 13  -14.4441 17993.9 -13539.0 -36.9584 22518.5
 12 06 2015  19 14  -14.4447 17993.7 -13539.0 -36.9588 22518.4
 12 06 2015  19 15  -14.4458 17992.8 -13539.0 -36.9601 22517.7
 12 06 2015  19 16  -14.4460 17992.4 -13538.7 -36.9603 22517.1
 12 06 2015  19 17  -14.4463 17992.3 -13538.9 -36.9608 22517.2
 12 06 2015  19 18  -14.4462 17992.5 -13540.0 -36.9626 22518.1
 12 06 2015  19 19  -14.4470 17992.5 -13540.0 -36.9628 22518.0
 12 06 2015  19 20  -14.4478 17992.3 -13539.5 -36.9620 22517.6
 12 06 2015  19 21  -14.4482 17992.1 -13539.8 -36.9628 22517.6
 12 06 2015  19 22  -14.4481 17992.6 -13540.1 -36.9627 22518.1
 12 06 2015  19 23  -14.4482 17993.3 -13540.3 -36.9621 22518.9
 12 06 2015  19 24  -14.4486 17993.6 -13541.0 -36.9631 22519.5
 12 06 2015  19 25  -14.4490 17993.7 -13540.8 -36.9625 22519.5
 12 06 2015  19 26  -14.4493 17993.5 -13541.4 -36.9639 22519.7
 12 06 2015  19 27  -14.4501 17993.2 -13540.4 -36.9625 22518.8
 12 06 2015  19 28  -14.4504 17993.0 -13540.3 -36.9625 22518.7
 12 06 2015  19 29  -14.4507 17993.2 -13540.9 -36.9636 22519.1
 12 06 2015  19 30  -14.4510 17993.6 -13540.7 -36.9624 22519.4
 12 06 2015  19 31  -14.4517 17993.4 -13540.9 -36.9632 22519.3
 12 06 2015  19 32  -14.4522 17993.1 -13541.6 -36.9650 22519.4
 12 06 2015  19 33  -14.4528 17992.8 -13541.1 -36.9645 22518.9
 12 06 2015  19 34  -14.4535 17992.4 -13541.6 -36.9662 22519.0
 12 06 2015  19 35  -14.4556 17989.8 -13541.2 -36.9692 22516.6
 12 06 2015  19 36  -14.4578 17987.1 -13541.0 -36.9730 22514.3
 12 06 2015  19 37  -14.4588 17986.7 -13540.7 -36.9730 22513.8
 12 06 2015  19 38  -14.4593 17986.6 -13541.1 -36.9739 22514.0
 12 06 2015  19 39  -14.4597 17986.5 -13541.9 -36.9758 22514.4
 12 06 2015  19 40  -14.4594 17987.0 -13542.4 -36.9761 22515.1
 12 06 2015  19 41  -14.4585 17988.3 -13542.9 -36.9750 22516.4
 12 06 2015  19 42  -14.4584 17988.7 -13543.0 -36.9745 22516.8
 12 06 2015  19 43  -14.4594 17987.7 -13543.0 -36.9761 22516.0
 12 06 2015  19 44  -14.4623 17986.3 -13542.6 -36.9774 22514.6
 12 06 2015  19 45  -14.4631 17985.1 -13542.6 -36.9794 22513.7
 12 06 2015  19 46  -14.4633 17984.4 -13542.7 -36.9806 22513.2
 12 06 2015  19 47  -14.4630 17984.1 -13543.0 -36.9816 22513.1
 12 06 2015  19 48  -14.4622 17984.4 -13543.3 -36.9818 22513.6
 12 06 2015  19 49  -14.4621 17985.0 -13543.3 -36.9809 22514.0
 12 06 2015  19 50  -14.4619 17985.6 -13544.2 -36.9816 22515.1
 12 06 2015  19 51  -14.4619 17986.5 -13544.1 -36.9801 22515.7
 12 06 2015  19 52  -14.4618 17987.1 -13544.3 -36.9798 22516.3
 12 06 2015  19 53  -14.4625 17986.7 -13543.5 -36.9788 22515.5
 12 06 2015  19 54  -14.4632 17985.5 -13543.3 -36.9802 22514.5
 12 06 2015  19 55  -14.4633 17985.0 -13543.2 -36.9805 22514.0
 12 06 2015  19 56  -14.4637 17984.6 -13543.7 -36.9823 22514.0
 12 06 2015  19 57  -14.4644 17984.2 -13544.5 -36.9846 22514.1
 12 06 2015  19 58  -14.4651 17984.6 -13544.7 -36.9844 22514.6
 12 06 2015  19 59  -14.4654 17985.3 -13544.5 -36.9828 22515.0
 12 06 2015  20 00  -14.4652 17986.2 -13544.7 -36.9820 22515.8
 12 06 2015  20 01  -14.4657 17987.0 -13544.7 -36.9806 22516.5
 12 06 2015  20 02  -14.4661 17987.7 -13545.0 -36.9803 22517.2
 12 06 2015  20 03  -14.4667 17987.6 -13544.4 -36.9791 22516.7
 12 06 2015  20 04  -14.4676 17987.0 -13544.6 -36.9803 22516.4
 12 06 2015  20 05  -14.4681 17987.0 -13544.2 -36.9795 22516.2
 12 06 2015  20 06  -14.4690 17986.6 -13544.1 -36.9801 22515.8
 12 06 2015  20 07  -14.4692 17986.7 -13544.1 -36.9798 22515.8
 12 06 2015  20 08  -14.4697 17986.6 -13544.4 -36.9806 22516.0
 12 06 2015  20 09  -14.4706 17985.9 -13544.1 -36.9812 22515.2
 12 06 2015  20 10  -14.4715 17985.6 -13544.0 -36.9814 22514.9
 12 06 2015  20 11  -14.4719 17985.3 -13543.3 -36.9805 22514.3
 12 06 2015  20 12  -14.4728 17984.6 -13543.9 -36.9827 22514.1
 12 06 2015  20 13  -14.4728 17985.0 -13544.7 -36.9838 22514.9
 12 06 2015  20 14  -14.4735 17985.2 -13543.9 -36.9818 22514.5
 12 06 2015  20 15  -14.4737 17985.0 -13544.3 -36.9828 22514.6
 12 06 2015  20 16  -14.4735 17985.6 -13544.4 -36.9821 22515.1
 12 06 2015  20 17  -14.4736 17986.6 -13544.5 -36.9809 22516.0
 12 06 2015  20 18  -14.4740 17987.2 -13544.5 -36.9800 22516.5
 12 06 2015  20 19  -14.4747 17987.5 -13544.5 -36.9794 22516.7
 12 06 2015  20 20  -14.4747 17987.4 -13544.0 -36.9788 22516.4
 12 06 2015  20 21  -14.4750 17986.7 -13543.9 -36.9795 22515.7
 12 06 2015  20 22  -14.4759 17986.4 -13543.8 -36.9797 22515.4
 12 06 2015  20 23  -14.4764 17986.3 -13543.7 -36.9796 22515.3
 12 06 2015  20 24  -14.4778 17985.3 -13543.6 -36.9810 22514.4
 12 06 2015  20 25  -14.4781 17984.6 -13543.4 -36.9817 22513.8
 12 06 2015  20 26  -14.4782 17984.3 -13543.5 -36.9822 22513.6
 12 06 2015  20 27  -14.4784 17984.9 -13543.6 -36.9817 22514.1
 12 06 2015  20 28  -14.4795 17984.7 -13543.7 -36.9821 22514.0
 12 06 2015  20 29  -14.4793 17984.5 -13543.5 -36.9821 22513.7
 12 06 2015  20 30  -14.4791 17984.7 -13543.4 -36.9815 22513.9
 12 06 2015  20 31  -14.4799 17984.3 -13543.5 -36.9825 22513.6
 12 06 2015  20 32  -14.4801 17983.6 -13543.3 -36.9830 22512.9
 12 06 2015  20 33  -14.4798 17983.6 -13543.7 -36.9837 22513.1
 12 06 2015  20 34  -14.4794 17984.0 -13543.6 -36.9830 22513.4
 12 06 2015  20 35  -14.4791 17984.5 -13543.3 -36.9816 22513.7
 12 06 2015  20 36  -14.4793 17985.0 -13543.3 -36.9808 22514.0
 12 06 2015  20 37  -14.4796 17985.2 -13543.5 -36.9808 22514.3
 12 06 2015  20 38  -14.4802 17985.4 -13543.2 -36.9801 22514.3
 12 06 2015  20 39  -14.4802 17985.6 -13543.4 -36.9801 22514.5
 12 06 2015  20 40  -14.4807 17985.6 -13543.0 -36.9793 22514.3
 12 06 2015  20 41  -14.4814 17985.5 -13543.1 -36.9798 22514.3
 12 06 2015  20 42  -14.4825 17985.1 -13542.8 -36.9797 22513.8
 12 06 2015  20 43  -14.4835 17984.7 -13542.5 -36.9797 22513.3
 12 06 2015  20 44  -14.4844 17984.5 -13542.1 -36.9792 22512.9
 12 06 2015  20 45  -14.4846 17984.3 -13542.8 -36.9810 22513.1
 12 06 2015  20 46  -14.4852 17983.7 -13542.3 -36.9809 22512.4
 12 06 2015  20 47  -14.4856 17982.4 -13542.6 -36.9834 22511.5
 12 06 2015  20 48  -14.4867 17980.5 -13542.0 -36.9851 22509.6
 12 06 2015  20 49  -14.4874 17979.3 -13541.9 -36.9868 22508.7
 12 06 2015  20 50  -14.4878 17978.5 -13542.0 -36.9882 22508.1
 12 06 2015  20 51  -14.4877 17978.7 -13542.2 -36.9883 22508.3
 12 06 2015  20 52  -14.4875 17978.6 -13542.2 -36.9883 22508.2
 12 06 2015  20 53  -14.4878 17978.4 -13542.5 -36.9893 22508.2
 12 06 2015  20 54  -14.4877 17978.8 -13542.4 -36.9886 22508.6
 12 06 2015  20 55  -14.4876 17979.6 -13542.5 -36.9874 22509.2
 12 06 2015  20 56  -14.4878 17979.9 -13542.9 -36.9878 22509.7
 12 06 2015  20 57  -14.4881 17980.2 -13543.2 -36.9881 22510.1
 12 06 2015  20 58  -14.4888 17979.6 -13542.3 -36.9871 22509.2
 12 06 2015  20 59  -14.4887 17979.7 -13543.0 -36.9885 22509.6
 12 06 2015  21 00  -14.4890 17979.5 -13542.5 -36.9877 22509.1
 12 06 2015  21 01  -14.4891 17979.2 -13542.6 -36.9884 22509.0
 12 06 2015  21 02  -14.4893 17978.6 -13542.3 -36.9886 22508.3
 12 06 2015  21 03  -14.4895 17978.1 -13542.0 -36.9889 22507.7
 12 06 2015  21 04  -14.4895 17977.8 -13542.0 -36.9893 22507.5
 12 06 2015  21 05  -14.4896 17977.4 -13542.1 -36.9902 22507.2
 12 06 2015  21 06  -14.4900 17977.1 -13542.1 -36.9905 22507.0
 12 06 2015  21 07  -14.4903 17976.8 -13542.3 -36.9914 22506.8
 12 06 2015  21 08  -14.4905 17976.5 -13542.2 -36.9917 22506.6
 12 06 2015  21 09  -14.4905 17976.3 -13542.3 -36.9921 22506.4
 12 06 2015  21 10  -14.4906 17976.2 -13542.5 -36.9926 22506.5
 12 06 2015  21 11  -14.4900 17976.4 -13542.7 -36.9928 22506.8
 12 06 2015  21 12  -14.4897 17976.5 -13542.4 -36.9921 22506.7
 12 06 2015  21 13  -14.4889 17976.5 -13542.9 -36.9932 22507.0
 12 06 2015  21 14  -14.4883 17976.0 -13542.7 -36.9934 22506.5
 12 06 2015  21 15  -14.4879 17975.6 -13542.3 -36.9933 22505.9
 12 06 2015  21 16  -14.4878 17975.2 -13542.5 -36.9943 22505.7
 12 06 2015  21 17  -14.4875 17975.0 -13542.4 -36.9944 22505.5
 12 06 2015  21 18  -14.4870 17974.9 -13542.6 -36.9949 22505.5
 12 06 2015  21 19  -14.4866 17974.5 -13542.5 -36.9954 22505.2
 12 06 2015  21 20  -14.4866 17974.3 -13542.5 -36.9957 22505.0
 12 06 2015  21 21  -14.4871 17974.0 -13542.7 -36.9966 22504.8
 12 06 2015  21 22  -14.4876 17974.0 -13542.6 -36.9964 22504.8
 12 06 2015  21 23  -14.4877 17973.9 -13542.8 -36.9968 22504.9
 12 06 2015  21 24  -14.4875 17974.0 -13542.9 -36.9968 22505.0
 12 06 2015  21 25  -14.4872 17974.4 -13542.9 -36.9962 22505.3
 12 06 2015  21 26  -14.4869 17974.9 -13543.1 -36.9958 22505.9
 12 06 2015  21 27  -14.4872 17975.2 -13542.9 -36.9951 22506.0
 12 06 2015  21 28  -14.4879 17975.4 -13542.9 -36.9948 22506.1
 12 06 2015  21 29  -14.4883 17975.2 -13542.9 -36.9951 22506.0
 12 06 2015  21 30  -14.4889 17975.0 -13542.7 -36.9950 22505.7
 12 06 2015  21 31  -14.4891 17974.8 -13543.3 -36.9965 22505.8
 12 06 2015  21 32  -14.4896 17974.7 -13543.2 -36.9966 22505.7
 12 06 2015  21 33  -14.4905 17974.6 -13543.2 -36.9966 22505.6
 12 06 2015  21 34  -14.4906 17974.6 -13543.0 -36.9962 22505.6
 12 06 2015  21 35  -14.4902 17974.6 -13543.3 -36.9968 22505.7
 12 06 2015  21 36  -14.4903 17974.4 -13543.2 -36.9967 22505.5
 12 06 2015  21 37  -14.4898 17974.1 -13542.8 -36.9964 22505.0
 12 06 2015  21 38  -14.4899 17974.1 -13542.6 -36.9962 22504.9
 12 06 2015  21 39  -14.4895 17973.9 -13542.9 -36.9971 22504.9
 12 06 2015  21 40  -14.4893 17974.1 -13543.7 -36.9984 22505.6
 12 06 2015  21 41  -14.4885 17974.8 -13542.9 -36.9958 22505.7
 12 06 2015  21 42  -14.4881 17975.4 -13543.3 -36.9956 22506.3
 12 06 2015  21 43  -14.4880 17975.2 -13543.3 -36.9958 22506.2
 12 06 2015  21 44  -14.4883 17974.7 -13542.4 -36.9949 22505.3
 12 06 2015  21 45  -14.4893 17974.2 -13542.0 -36.9947 22504.6
 12 06 2015  21 46  -14.4896 17973.8 -13542.7 -36.9968 22504.7
 12 06 2015  21 47  -14.4902 17973.7 -13542.5 -36.9965 22504.5
 12 06 2015  21 48  -14.4898 17974.2 -13543.3 -36.9974 22505.4
 12 06 2015  21 49  -14.4880 17975.2 -13543.4 -36.9961 22506.2
 12 06 2015  21 50  -14.4872 17975.6 -13543.4 -36.9955 22506.6
 12 06 2015  21 51  -14.4870 17975.8 -13543.3 -36.9951 22506.7
 12 06 2015  21 52  -14.4871 17975.6 -13543.1 -36.9950 22506.4
 12 06 2015  21 53  -14.4871 17975.4 -13543.2 -36.9955 22506.3
 12 06 2015  21 54  -14.4871 17975.2 -13543.1 -36.9954 22506.1
 12 06 2015  21 55  -14.4874 17974.8 -13543.1 -36.9960 22505.7
 12 06 2015  21 56  -14.4876 17974.3 -13543.3 -36.9972 22505.5
 12 06 2015  21 57  -14.4880 17973.8 -13543.2 -36.9978 22505.0
 12 06 2015  21 58  -14.4879 17973.5 -13542.6 -36.9971 22504.4
 12 06 2015  21 59  -14.4871 17973.6 -13543.1 -36.9979 22504.8
 12 06 2015  22 00  -14.4867 17973.7 -13542.8 -36.9972 22504.7
 12 06 2015  22 01  -14.4858 17974.0 -13543.6 -36.9983 22505.4
 12 06 2015  22 02  -14.4855 17974.0 -13543.2 -36.9976 22505.1
 12 06 2015  22 03  -14.4854 17973.6 -13542.9 -36.9975 22504.7
 12 06 2015  22 04  -14.4853 17973.7 -13543.3 -36.9981 22505.0
 12 06 2015  22 05  -14.4855 17973.9 -13543.3 -36.9978 22505.1
 12 06 2015  22 06  -14.4854 17974.2 -13543.5 -36.9977 22505.5
 12 06 2015  22 07  -14.4850 17974.6 -13543.3 -36.9968 22505.7
 12 06 2015  22 08  -14.4847 17975.0 -13543.8 -36.9972 22506.3
 12 06 2015  22 09  -14.4842 17975.3 -13543.4 -36.9961 22506.3
 12 06 2015  22 10  -14.4838 17975.1 -13543.9 -36.9972 22506.4
 12 06 2015  22 11  -14.4842 17974.7 -13543.4 -36.9968 22505.8
 12 06 2015  22 12  -14.4840 17974.6 -13543.1 -36.9964 22505.6
 12 06 2015  22 13  -14.4845 17974.3 -13543.0 -36.9967 22505.3
 12 06 2015  22 14  -14.4845 17974.2 -13543.3 -36.9974 22505.4
 12 06 2015  22 15  -14.4848 17973.9 -13543.7 -36.9986 22505.4
 12 06 2015  22 16  -14.4852 17973.8 -13543.1 -36.9976 22505.0
 12 06 2015  22 17  -14.4854 17974.0 -13543.8 -36.9987 22505.6
 12 06 2015  22 18  -14.4860 17974.1 -13543.8 -36.9985 22505.6
 12 06 2015  22 19  -14.4862 17974.3 -13544.1 -36.9990 22506.0
 12 06 2015  22 20  -14.4862 17974.6 -13543.1 -36.9964 22505.5
 12 06 2015  22 21  -14.4858 17974.8 -13543.2 -36.9964 22505.8
 12 06 2015  22 22  -14.4855 17974.9 -13543.4 -36.9965 22506.0
 12 06 2015  22 23  -14.4850 17975.0 -13543.8 -36.9973 22506.3
 12 06 2015  22 24  -14.4846 17974.9 -13543.7 -36.9971 22506.1
 12 06 2015  22 25  -14.4847 17974.5 -13543.6 -36.9975 22505.8
 12 06 2015  22 26  -14.4845 17974.5 -13543.9 -36.9983 22506.0
 12 06 2015  22 27  -14.4845 17974.5 -13543.5 -36.9973 22505.7
 12 06 2015  22 28  -14.4845 17974.6 -13543.6 -36.9975 22505.9
 12 06 2015  22 29  -14.4844 17974.6 -13544.1 -36.9985 22506.2
 12 06 2015  22 30  -14.4847 17974.3 -13543.5 -36.9977 22505.6
 12 06 2015  22 31  -14.4846 17974.1 -13543.8 -36.9985 22505.7
 12 06 2015  22 32  -14.4843 17974.1 -13543.6 -36.9982 22505.5
 12 06 2015  22 33  -14.4842 17974.0 -13543.6 -36.9984 22505.4
 12 06 2015  22 34  -14.4842 17973.8 -13543.5 -36.9984 22505.1
 12 06 2015  22 35  -14.4840 17973.6 -13543.6 -36.9989 22505.1
 12 06 2015  22 36  -14.4843 17973.4 -13543.6 -36.9992 22504.9
 12 06 2015  22 37  -14.4847 17973.4 -13543.5 -36.9991 22504.8
 12 06 2015  22 38  -14.4849 17973.5 -13543.8 -36.9996 22505.1
 12 06 2015  22 39  -14.4854 17973.9 -13543.7 -36.9988 22505.4
 12 06 2015  22 40  -14.4859 17974.1 -13543.9 -36.9986 22505.7
 12 06 2015  22 41  -14.4863 17974.1 -13543.6 -36.9981 22505.5
 12 06 2015  22 42  -14.4861 17974.5 -13543.5 -36.9973 22505.7
 12 06 2015  22 43  -14.4855 17974.7 -13544.0 -36.9981 22506.3
 12 06 2015  22 44  -14.4849 17975.1 -13544.2 -36.9978 22506.6
 12 06 2015  22 45  -14.4850 17975.2 -13543.5 -36.9964 22506.3
 12 06 2015  22 46  -14.4848 17975.2 -13543.5 -36.9963 22506.3
 12 06 2015  22 47  -14.4852 17974.8 -13543.1 -36.9960 22505.7
 12 06 2015  22 48  -14.4855 17974.5 -13542.8 -36.9959 22505.3
 12 06 2015  22 49  -14.4856 17974.3 -13543.1 -36.9969 22505.3
 12 06 2015  22 50  -14.4854 17974.2 -13543.3 -36.9973 22505.4
 12 06 2015  22 51  -14.4855 17974.0 -13543.2 -36.9973 22505.2
 12 06 2015  22 52  -14.4857 17973.9 -13543.3 -36.9978 22505.2
 12 06 2015  22 53  -14.4858 17974.0 -13543.2 -36.9975 22505.1
 12 06 2015  22 54  -14.4859 17974.3 -13543.3 -36.9971 22505.5
 12 06 2015  22 55  -14.4859 17974.6 -13543.2 -36.9966 22505.7
 12 06 2015  22 56  -14.4856 17974.8 -13543.4 -36.9966 22506.0
 12 06 2015  22 57  -14.4853 17974.8 -13543.6 -36.9970 22506.1
 12 06 2015  22 58  -14.4852 17975.0 -13543.0 -36.9955 22505.9
 12 06 2015  22 59  -14.4852 17975.2 -13543.1 -36.9955 22506.1
 12 06 2015  23 00  -14.4854 17975.4 -13543.1 -36.9950 22506.3
 12 06 2015  23 01  -14.4851 17975.6 -13543.1 -36.9949 22506.4
 12 06 2015  23 02  -14.4847 17975.7 -13543.1 -36.9946 22506.5
 12 06 2015  23 03  -14.4843 17975.7 -13543.0 -36.9946 22506.4
 12 06 2015  23 04  -14.4841 17975.6 -13542.9 -36.9944 22506.3
 12 06 2015  23 05  -14.4840 17975.5 -13542.9 -36.9946 22506.2
 12 06 2015  23 06  -14.4837 17975.6 -13543.2 -36.9951 22506.5
 12 06 2015  23 07  -14.4835 17975.7 -13543.0 -36.9945 22506.4
 12 06 2015  23 08  -14.4836 17975.7 -13542.7 -36.9940 22506.2
 12 06 2015  23 09  -14.4832 17975.9 -13542.8 -36.9939 22506.5
 12 06 2015  23 10  -14.4827 17976.0 -13543.0 -36.9942 22506.6
 12 06 2015  23 11  -14.4823 17975.9 -13542.9 -36.9941 22506.5
 12 06 2015  23 12  -14.4820 17975.6 -13543.3 -36.9953 22506.6
 12 06 2015  23 13  -14.4822 17975.0 -13542.6 -36.9947 22505.5
 12 06 2015  23 14  -14.4826 17973.7 -13543.2 -36.9980 22504.9
 12 06 2015  23 15  -14.4835 17972.5 -13542.9 -36.9992 22503.8
 12 06 2015  23 16  -14.4842 17972.0 -13542.3 -36.9987 22503.0
 12 06 2015  23 17  -14.4842 17972.0 -13542.6 -36.9994 22503.3
 12 06 2015  23 18  -14.4840 17972.1 -13542.9 -36.9999 22503.5
 12 06 2015  23 19  -14.4835 17972.1 -13543.4 -37.0009 22503.8
 12 06 2015  23 20  -14.4836 17972.1 -13542.9 -36.9997 22503.5
 12 06 2015  23 21  -14.4837 17972.1 -13543.3 -37.0005 22503.7
 12 06 2015  23 22  -14.4841 17971.9 -13544.1 -37.0025 22504.0
 12 06 2015  23 23  -14.4847 17971.7 -13543.7 -37.0021 22503.7
 12 06 2015  23 24  -14.4853 17971.4 -13543.7 -37.0024 22503.4
 12 06 2015  23 25  -14.4858 17971.3 -13542.8 -37.0009 22502.8
 12 06 2015  23 26  -14.4857 17971.1 -13543.4 -37.0023 22503.0
 12 06 2015  23 27  -14.4858 17971.0 -13543.0 -37.0018 22502.7
 12 06 2015  23 28  -14.4860 17970.8 -13543.8 -37.0036 22502.9
 12 06 2015  23 29  -14.4869 17970.6 -13543.4 -37.0030 22502.6
 12 06 2015  23 30  -14.4870 17970.8 -13543.6 -37.0031 22502.9
 12 06 2015  23 31  -14.4870 17971.0 -13543.8 -37.0034 22503.1
 12 06 2015  23 32  -14.4871 17971.1 -13543.6 -37.0028 22503.1
 12 06 2015  23 33  -14.4872 17971.2 -13543.3 -37.0021 22503.0
 12 06 2015  23 34  -14.4876 17971.1 -13544.1 -37.0038 22503.4
 12 06 2015  23 35  -14.4879 17970.8 -13543.7 -37.0034 22503.0
 12 06 2015  23 36  -14.4884 17970.7 -13543.3 -37.0027 22502.6
 12 06 2015  23 37  -14.4883 17970.7 -13543.9 -37.0039 22502.9
 12 06 2015  23 38  -14.4879 17970.9 -13543.5 -37.0029 22502.9
 12 06 2015  23 39  -14.4877 17971.0 -13543.5 -37.0026 22503.0
 12 06 2015  23 40  -14.4875 17971.0 -13543.9 -37.0036 22503.2
 12 06 2015  23 41  -14.4873 17970.9 -13543.8 -37.0035 22503.1
 12 06 2015  23 42  -14.4876 17970.7 -13543.8 -37.0039 22502.9
 12 06 2015  23 43  -14.4878 17970.6 -13543.8 -37.0040 22502.8
 12 06 2015  23 44  -14.4886 17970.1 -13543.2 -37.0036 22502.1
 12 06 2015  23 45  -14.4884 17969.7 -13543.9 -37.0056 22502.2
 12 06 2015  23 46  -14.4884 17969.5 -13543.5 -37.0050 22501.8
 12 06 2015  23 47  -14.4882 17969.5 -13543.7 -37.0056 22501.9
 12 06 2015  23 48  -14.4884 17969.2 -13543.5 -37.0054 22501.5
 12 06 2015  23 49  -14.4885 17969.0 -13544.2 -37.0072 22501.8
 12 06 2015  23 50  -14.4890 17968.9 -13544.0 -37.0070 22501.5
 12 06 2015  23 51  -14.4890 17968.9 -13543.6 -37.0061 22501.4
 12 06 2015  23 52  -14.4884 17969.0 -13544.2 -37.0072 22501.7
 12 06 2015  23 53  -14.4880 17969.0 -13544.3 -37.0074 22501.9
 12 06 2015  23 54  -14.4880 17969.0 -13543.9 -37.0064 22501.6
 12 06 2015  23 55  -14.4881 17969.0 -13544.1 -37.0070 22501.7
 12 06 2015  23 56  -14.4885 17968.7 -13544.2 -37.0076 22501.6
 12 06 2015  23 57  -14.4886 17968.5 -13544.0 -37.0077 22501.3
 12 06 2015  23 58  -14.4887 17968.4 -13543.4 -37.0065 22500.9
SAO MARTINHO DA SERRA EMBRACE-06 <163> 1 Min. Reported data

 DD MM YYYY  HH MM   D(Deg)  H(nT)   Z(nT)   I(Deg)   F(nT)

 12 06 2015  00 00  -14.4907 17956.6 -13542.0 -37.0216 22490.5
 12 06 2015  00 01  -14.4904 17956.7 -13542.5 -37.0226 22490.9
 12 06 2015  00 02  -14.4902 17956.8 -13542.1 -37.0217 22490.8
 12 06 2015  00 03  -14.4897 17956.8 -13541.9 -37.0212 22490.6
 12 06 2015  00 04  -14.4893 17956.9 -13542.3 -37.0220 22491.0
 12 06 2015  00 05  -14.4890 17957.2 -13542.0 -37.0208 22491.0
 12 06 2015  00 06  -14.4893 17957.2 -13541.7 -37.0202 22490.8
 12 06 2015  00 07  -14.4892 17957.1 -13542.4 -37.0218 22491.2
 12 06 2015  00 08  -14.4891 17956.9 -13542.1 -37.0216 22490.8
 12 06 2015  00 09  -14.4887 17956.8 -13542.7 -37.0227 22491.1
 12 06 2015  00 10  -14.4887 17956.8 -13542.0 -37.0215 22490.7
 12 06 2015  00 11  -14.4887 17956.7 -13542.1 -37.0219 22490.7
 12 06 2015  00 12  -14.4889 17956.7 -13541.7 -37.0210 22490.5
 12 06 2015  00 13  -14.4888 17956.9 -13542.3 -37.0220 22491.0
 12 06 2015  00 14  -14.4889 17957.1 -13542.3 -37.0215 22491.1
 12 06 2015  00 15  -14.4891 17957.3 -13542.4 -37.0216 22491.3
 12 06 2015  00 16  -14.4890 17957.4 -13542.6 -37.0217 22491.6
 12 06 2015  00 17  -14.4892 17957.6 -13542.3 -37.0209 22491.5
 12 06 2015  00 18  -14.4892 17957.7 -13542.6 -37.0213 22491.8
 12 06 2015  00 19  -14.4893 17957.9 -13542.5 -37.0209 22491.9
 12 06 2015  00 20  -14.4890 17958.0 -13542.8 -37.0212 22492.2
 12 06 2015  00 21  -14.4888 17958.3 -13542.1 -37.0193 22491.9
 12 06 2015  00 22  -14.4886 17958.4 -13541.9 -37.0189 22491.9
 12 06 2015  00 23  -14.4885 17958.3 -13542.3 -37.0197 22492.1
 12 06 2015  00 24  -14.4884 17958.4 -13542.5 -37.0199 22492.3
 12 06 2015  00 25  -14.4885 17958.4 -13541.8 -37.0185 22491.9
 12 06 2015  00 26  -14.4883 17958.3 -13542.1 -37.0193 22492.0
 12 06 2015  00 27  -14.4885 17958.2 -13542.3 -37.0198 22492.0
 12 06 2015  00 28  -14.4882 17958.0 -13542.6 -37.0207 22492.1
 12 06 2015  00 29  -14.4879 17958.0 -13542.3 -37.0201 22491.8
 12 06 2015  00 30  -14.4879 17957.9 -13542.0 -37.0198 22491.6
 12 06 2015  00 31  -14.4880 17957.8 -13541.9 -37.0196 22491.4
 12 06 2015  00 32  -14.4884 17957.6 -13541.9 -37.0200 22491.2
 12 06 2015  00 33  -14.4887 17957.5 -13541.9 -37.0201 22491.2
 12 06 2015  00 34  -14.4884 17957.5 -13542.1 -37.0204 22491.3
 12 06 2015  00 35  -14.4881 17957.5 -13542.2 -37.0208 22491.4
 12 06 2015  00 36  -14.4877 17957.5 -13542.0 -37.0203 22491.3
 12 06 2015  00 37  -14.4873 17957.6 -13542.1 -37.0204 22491.4
 12 06 2015  00 38  -14.4872 17957.7 -13542.8 -37.0218 22491.9
 12 06 2015  00 39  -14.4874 17957.7 -13542.6 -37.0213 22491.8
 12 06 2015  00 40  -14.4873 17957.7 -13542.0 -37.0200 22491.5
 12 06 2015  00 41  -14.4873 17957.8 -13542.0 -37.0199 22491.5
 12 06 2015  00 42  -14.4873 17957.7 -13542.3 -37.0207 22491.6
 12 06 2015  00 43  -14.4871 17957.7 -13542.4 -37.0209 22491.6
 12 06 2015  00 44  -14.4870 17957.6 -13542.3 -37.0207 22491.6
 12 06 2015  00 45  -14.4870 17957.6 -13542.4 -37.0211 22491.6
 12 06 2015  00 46  -14.4869 17957.6 -13542.7 -37.0218 22491.8
 12 06 2015  00 47  -14.4869 17957.6 -13542.6 -37.0215 22491.7
 12 06 2015  00 48  -14.4869 17957.5 -13542.9 -37.0220 22491.8
 12 06 2015  00 49  -14.4868 17957.7 -13542.5 -37.0211 22491.7
 12 06 2015  00 50  -14.4866 17957.8 -13542.5 -37.0211 22491.8
 12 06 2015  00 51  -14.4866 17957.9 -13542.7 -37.0213 22492.0
 12 06 2015  00 52  -14.4867 17957.8 -13542.4 -37.0209 22491.8
 12 06 2015  00 53  -14.4869 17957.6 -13542.5 -37.0212 22491.6
 12 06 2015  00 54  -14.4870 17957.6 -13542.7 -37.0216 22491.8
 12 06 2015  00 55  -14.4874 17957.6 -13542.3 -37.0209 22491.6
 12 06 2015  00 56  -14.4876 17957.5 -13542.3 -37.0209 22491.5
 12 06 2015  00 57  -14.4876 17957.5 -13542.3 -37.0209 22491.5
 12 06 2015  00 58  -14.4876 17957.4 -13542.6 -37.0217 22491.6
 12 06 2015  00 59  -14.4876 17957.3 -13542.5 -37.0216 22491.4
 12 06 2015  01 00  -14.4875 17957.3 -13542.6 -37.0219 22491.4
 12 06 2015  01 01  -14.4877 17957.1 -13542.1 -37.0212 22491.0
 12 06 2015  01 02  -14.4879 17957.0 -13541.8 -37.0208 22490.8
 12 06 2015  01 03  -14.4879 17957.1 -13542.0 -37.0210 22490.9
 12 06 2015  01 04  -14.4880 17957.1 -13542.6 -37.0221 22491.3
 12 06 2015  01 05  -14.4883 17957.0 -13542.3 -37.0218 22491.0
 12 06 2015  01 06  -14.4888 17956.5 -13542.6 -37.0231 22490.9
 12 06 2015  01 07  -14.4893 17956.4 -13542.2 -37.0225 22490.6
 12 06 2015  01 08  -14.4891 17956.7 -13542.3 -37.0223 22490.8
 12 06 2015  01 09  -14.4887 17957.1 -13542.5 -37.0220 22491.3
 12 06 2015  01 10  -14.4885 17957.2 -13542.8 -37.0225 22491.5
 12 06 2015  01 11  -14.4888 17957.0 -13542.2 -37.0216 22491.0
 12 06 2015  01 12  -14.4891 17956.6 -13542.7 -37.0232 22491.0
 12 06 2015  01 13  -14.4894 17956.3 -13542.6 -37.0235 22490.7
 12 06 2015  01 14  -14.4896 17956.0 -13542.3 -37.0233 22490.3
 12 06 2015  01 15  -14.4898 17955.8 -13542.3 -37.0237 22490.1
 12 06 2015  01 16  -14.4900 17955.7 -13542.7 -37.0244 22490.3
 12 06 2015  01 17  -14.4899 17955.9 -13542.5 -37.0239 22490.3
 12 06 2015  01 18  -14.4898 17956.0 -13542.7 -37.0241 22490.5
 12 06 2015  01 19  -14.4893 17956.5 -13543.0 -37.0238 22491.1
 12 06 2015  01 20  -14.4889 17956.8 -13542.8 -37.0229 22491.2
 12 06 2015  01 21  -14.4886 17957.1 -13542.9 -37.0228 22491.5
 12 06 2015  01 22  -14.4883 17957.3 -13542.4 -37.0215 22491.4
 12 06 2015  01 23  -14.4883 17957.3 -13542.4 -37.0216 22491.4
 12 06 2015  01 24  -14.4884 17957.3 -13542.2 -37.0212 22491.2
 12 06 2015  01 25  -14.4886 17957.1 -13542.3 -37.0215 22491.1
 12 06 2015  01 26  -14.4888 17956.9 -13542.4 -37.0221 22491.1
 12 06 2015  01 27  -14.4887 17957.0 -13542.6 -37.0224 22491.2
 12 06 2015  01 28  -14.4888 17956.9 -13543.0 -37.0233 22491.4
 12 06 2015  01 29  -14.4889 17956.8 -13543.4 -37.0242 22491.6
 12 06 2015  01 30  -14.4893 17956.8 -13542.4 -37.0224 22491.0
 12 06 2015  01 31  -14.4891 17956.9 -13543.1 -37.0235 22491.5
 12 06 2015  01 32  -14.4893 17956.9 -13542.5 -37.0224 22491.1
 12 06 2015  01 33  -14.4895 17956.8 -13542.6 -37.0228 22491.1
 12 06 2015  01 34  -14.4895 17956.7 -13542.3 -37.0223 22490.9
 12 06 2015  01 35  -14.4898 17956.6 -13542.7 -37.0233 22491.0
 12 06 2015  01 36  -14.4899 17956.5 -13543.2 -37.0243 22491.2
 12 06 2015  01 37  -14.4900 17956.4 -13543.4 -37.0249 22491.3
 12 06 2015  01 38  -14.4899 17956.5 -13542.7 -37.0233 22490.9
 12 06 2015  01 39  -14.4897 17956.7 -13542.4 -37.0223 22490.9
 12 06 2015  01 40  -14.4898 17956.9 -13542.7 -37.0226 22491.2
 12 06 2015  01 41  -14.4899 17957.0 -13542.3 -37.0217 22491.1
 12 06 2015  01 42  -14.4896 17957.3 -13542.9 -37.0225 22491.7
 12 06 2015  01 43  -14.4891 17957.6 -13543.0 -37.0223 22492.0
 12 06 2015  01 44  -14.4888 17957.7 -13543.1 -37.0222 22492.1
 12 06 2015  01 45  -14.4889 17957.7 -13542.6 -37.0213 22491.8
 12 06 2015  01 46  -14.4888 17957.8 -13542.8 -37.0215 22492.0
 12 06 2015  01 47  -14.4885 17958.2 -13543.0 -37.0214 22492.4
 12 06 2015  01 48  -14.4884 17958.4 -13543.0 -37.0210 22492.6
 12 06 2015  01 49  -14.4888 17958.4 -13542.9 -37.0208 22492.5
 12 06 2015  01 50  -14.4893 17958.5 -13542.9 -37.0207 22492.6
 12 06 2015  01 51  -14.4898 17958.4 -13543.1 -37.0212 22492.6
 12 06 2015  01 52  -14.4902 17958.2 -13542.8 -37.0209 22492.3
 12 06 2015  01 53  -14.4907 17958.2 -13542.7 -37.0208 22492.3
 12 06 2015  01 54  -14.4909 17958.2 -13542.8 -37.0209 22492.3
 12 06 2015  01 55  -14.4909 17958.2 -13542.8 -37.0209 22492.3
 12 06 2015  01 56  -14.4912 17958.2 -13542.7 -37.0206 22492.3
 12 06 2015  01 57  -14.4912 17958.3 -13542.9 -37.0210 22492.4
 12 06 2015  01 58  -14.4913 17958.2 -13542.7 -37.0207 22492.3
 12 06 2015  01 59  -14.4914 17958.1 -13542.7 -37.0209 22492.2
 12 06 2015  02 00  -14.4912 17957.9 -13542.9 -37.0215 22492.2
 12 06 2015  02 01  -14.4914 17957.9 -13543.0 -37.0218 22492.2
 12 06 2015  02 02  -14.4915 17957.8 -13542.8 -37.0215 22492.0
 12 06 2015  02 03  -14.4916 17957.7 -13542.2 -37.0205 22491.6
 12 06 2015  02 04  -14.4914 17957.7 -13542.7 -37.0215 22491.9
 12 06 2015  02 05  -14.4913 17957.7 -13542.9 -37.0218 22492.0
 12 06 2015  02 06  -14.4913 17957.8 -13543.0 -37.0220 22492.2
 12 06 2015  02 07  -14.4913 17957.8 -13543.4 -37.0228 22492.4
 12 06 2015  02 08  -14.4914 17957.7 -13543.1 -37.0223 22492.1
 12 06 2015  02 09  -14.4912 17957.9 -13542.7 -37.0213 22492.0
 12 06 2015  02 10  -14.4912 17957.7 -13543.1 -37.0224 22492.1
 12 06 2015  02 11  -14.4912 17957.5 -13543.1 -37.0225 22492.0
 12 06 2015  02 12  -14.4916 17957.6 -13542.8 -37.0219 22491.8
 12 06 2015  02 13  -14.4917 17957.5 -13543.1 -37.0225 22491.9
 12 06 2015  02 14  -14.4918 17957.4 -13543.0 -37.0226 22491.8
 12 06 2015  02 15  -14.4919 17957.2 -13543.2 -37.0232 22491.8
 12 06 2015  02 16  -14.4923 17957.1 -13543.0 -37.0231 22491.5
 12 06 2015  02 17  -14.4921 17957.2 -13543.6 -37.0241 22492.0
 12 06 2015  02 18  -14.4919 17957.3 -13543.4 -37.0234 22492.0
 12 06 2015  02 19  -14.4918 17957.3 -13542.2 -37.0211 22491.3
 12 06 2015  02 20  -14.4911 17957.3 -13542.9 -37.0225 22491.7
 12 06 2015  02 21  -14.4909 17957.2 -13542.8 -37.0225 22491.6
 12 06 2015  02 22  -14.4913 17956.9 -13543.1 -37.0235 22491.4
 12 06 2015  02 23  -14.4916 17956.7 -13543.2 -37.0240 22491.3
 12 06 2015  02 24  -14.4919 17956.6 -13543.4 -37.0246 22491.4
 12 06 2015  02 25  -14.4923 17956.6 -13543.2 -37.0242 22491.2
 12 06 2015  02 26  -14.4928 17956.4 -13543.1 -37.0242 22491.1
 12 06 2015  02 27  -14.4929 17956.5 -13543.2 -37.0244 22491.2
 12 06 2015  02 28  -14.4927 17956.4 -13543.2 -37.0244 22491.1
 12 06 2015  02 29  -14.4929 17956.3 -13543.2 -37.0246 22491.0
 12 06 2015  02 30  -14.4932 17956.1 -13543.3 -37.0251 22491.0
 12 06 2015  02 31  -14.4935 17956.0 -13543.1 -37.0249 22490.7
 12 06 2015  02 32  -14.4939 17955.9 -13543.3 -37.0255 22490.8
 12 06 2015  02 33  -14.4941 17955.8 -13543.2 -37.0255 22490.6
 12 06 2015  02 34  -14.4941 17955.6 -13543.4 -37.0261 22490.6
 12 06 2015  02 35  -14.4942 17955.4 -13543.4 -37.0264 22490.5
 12 06 2015  02 36  -14.4944 17955.3 -13543.0 -37.0257 22490.2
 12 06 2015  02 37  -14.4945 17955.2 -13543.6 -37.0271 22490.4
 12 06 2015  02 38  -14.4946 17955.0 -13543.3 -37.0267 22490.1
 12 06 2015  02 39  -14.4945 17955.0 -13543.4 -37.0270 22490.2
 12 06 2015  02 40  -14.4938 17955.0 -13543.6 -37.0274 22490.3
 12 06 2015  02 41  -14.4932 17955.1 -13543.7 -37.0276 22490.4
 12 06 2015  02 42  -14.4929 17955.0 -13543.3 -37.0269 22490.1
 12 06 2015  02 43  -14.4924 17955.2 -13543.2 -37.0265 22490.2
 12 06 2015  02 44  -14.4922 17955.1 -13543.5 -37.0272 22490.3
 12 06 2015  02 45  -14.4922 17955.0 -13543.9 -37.0280 22490.4
 12 06 2015  02 46  -14.4919 17955.2 -13544.0 -37.0279 22490.6
 12 06 2015  02 47  -14.4912 17955.3 -13543.3 -37.0264 22490.3
 12 06 2015  02 48  -14.4906 17955.2 -13543.3 -37.0266 22490.2
 12 06 2015  02 49  -14.4906 17954.9 -13543.7 -37.0277 22490.2
 12 06 2015  02 50  -14.4906 17954.6 -13544.0 -37.0288 22490.1
 12 06 2015  02 51  -14.4904 17954.5 -13543.7 -37.0286 22489.9
 12 06 2015  02 52  -14.4897 17954.4 -13543.7 -37.0285 22489.9
 12 06 2015  02 53  -14.4888 17954.6 -13544.3 -37.0296 22490.4
 12 06 2015  02 54  -14.4889 17954.4 -13543.2 -37.0275 22489.5
 12 06 2015  02 55  -14.4891 17954.2 -13544.1 -37.0299 22489.9
 12 06 2015  02 56  -14.4895 17954.1 -13543.3 -37.0282 22489.4
 12 06 2015  02 57  -14.4892 17954.3 -13543.5 -37.0284 22489.6
 12 06 2015  02 58  -14.4890 17954.4 -13543.8 -37.0287 22489.9
 12 06 2015  02 59  -14.4892 17954.3 -13544.1 -37.0295 22490.0
 12 06 2015  03 00  -14.4894 17954.3 -13543.3 -37.0279 22489.5
 12 06 2015  03 01  -14.4896 17954.2 -13543.6 -37.0287 22489.6
 12 06 2015  03 02  -14.4900 17954.2 -13543.5 -37.0284 22489.6
 12 06 2015  03 03  -14.4900 17954.5 -13543.7 -37.0284 22489.9
 12 06 2015  03 04  -14.4900 17954.7 -13543.8 -37.0284 22490.1
 12 06 2015  03 05  -14.4900 17954.9 -13544.1 -37.0285 22490.5
 12 06 2015  03 06  -14.4897 17955.0 -13544.1 -37.0286 22490.5
 12 06 2015  03 07  -14.4894 17955.0 -13544.2 -37.0288 22490.6
 12 06 2015  03 08  -14.4892 17955.0 -13543.9 -37.0281 22490.4
 12 06 2015  03 09  -14.4886 17955.1 -13544.0 -37.0282 22490.6
 12 06 2015  03 10  -14.4883 17955.0 -13544.3 -37.0289 22490.7
 12 06 2015  03 11  -14.4882 17954.9 -13543.4 -37.0273 22490.1
 12 06 2015  03 12  -14.4878 17954.9 -13544.1 -37.0287 22490.4
 12 06 2015  03 13  -14.4878 17954.7 -13544.3 -37.0294 22490.4
 12 06 2015  03 14  -14.4878 17954.6 -13543.9 -37.0286 22490.1
 12 06 2015  03 15  -14.4878 17954.5 -13544.3 -37.0295 22490.3
 12 06 2015  03 16  -14.4883 17954.4 -13543.7 -37.0285 22489.8
 12 06 2015  03 17  -14.4887 17954.3 -13543.9 -37.0291 22489.9
 12 06 2015  03 18  -14.4891 17954.3 -13544.1 -37.0296 22490.0
 12 06 2015  03 19  -14.4892 17954.2 -13543.8 -37.0292 22489.8
 12 06 2015  03 20  -14.4892 17954.2 -13544.0 -37.0295 22489.8
 12 06 2015  03 21  -14.4894 17954.1 -13544.0 -37.0297 22489.8
 12 06 2015  03 22  -14.4894 17954.1 -13544.0 -37.0298 22489.8
 12 06 2015  03 23  -14.4893 17954.1 -13544.0 -37.0296 22489.7
 12 06 2015  03 24  -14.4892 17954.1 -13544.0 -37.0296 22489.8
 12 06 2015  03 25  -14.4887 17954.2 -13544.0 -37.0297 22489.8
 12 06 2015  03 26  -14.4879 17954.2 -13544.1 -37.0297 22489.9
 12 06 2015  03 27  -14.4872 17954.4 -13544.1 -37.0293 22490.0
 12 06 2015  03 28  -14.4863 17954.7 -13544.0 -37.0289 22490.2
 12 06 2015  03 29  -14.4861 17954.6 -13544.0 -37.0289 22490.2
 12 06 2015  03 30  -14.4863 17954.5 -13544.0 -37.0291 22490.1
 12 06 2015  03 31  -14.4867 17954.7 -13544.0 -37.0289 22490.2
 12 06 2015  03 32  -14.4872 17955.0 -13543.9 -37.0281 22490.4
 12 06 2015  03 33  -14.4869 17955.3 -13544.1 -37.0280 22490.8
 12 06 2015  03 34  -14.4865 17955.3 -13544.3 -37.0283 22490.9
 12 06 2015  03 35  -14.4863 17955.3 -13544.0 -37.0278 22490.7
 12 06 2015  03 36  -14.4860 17955.4 -13544.1 -37.0279 22490.8
 12 06 2015  03 37  -14.4857 17955.4 -13544.0 -37.0276 22490.8
 12 06 2015  03 38  -14.4854 17955.7 -13543.8 -37.0268 22490.9
 12 06 2015  03 39  -14.4851 17955.9 -13544.0 -37.0270 22491.2
 12 06 2015  03 40  -14.4849 17956.1 -13544.2 -37.0270 22491.5
 12 06 2015  03 41  -14.4847 17956.4 -13543.9 -37.0260 22491.5
 12 06 2015  03 42  -14.4831 17957.5 -13544.8 -37.0260 22492.9
 12 06 2015  03 43  -14.4830 17957.6 -13544.0 -37.0242 22492.5
 12 06 2015  03 44  -14.4820 17957.9 -13544.4 -37.0246 22493.1
 12 06 2015  03 45  -14.4813 17958.1 -13544.6 -37.0247 22493.4
 12 06 2015  03 46  -14.4809 17958.4 -13544.5 -37.0241 22493.5
 12 06 2015  03 47  -14.4803 17959.0 -13543.8 -37.0217 22493.6
 12 06 2015  03 48  -14.4800 17959.6 -13543.6 -37.0203 22493.9
 12 06 2015  03 49  -14.4794 17960.5 -13544.2 -37.0202 22495.0
 12 06 2015  03 50  -14.4795 17961.2 -13544.1 -37.0189 22495.5
 12 06 2015  03 51  -14.4784 17961.8 -13543.8 -37.0174 22495.8
 12 06 2015  03 52  -14.4782 17962.2 -13543.7 -37.0165 22496.1
 12 06 2015  03 53  -14.4778 17962.4 -13543.9 -37.0168 22496.3
 12 06 2015  03 54  -14.4781 17962.8 -13543.9 -37.0161 22496.6
 12 06 2015  03 55  -14.4780 17962.8 -13543.1 -37.0145 22496.2
 12 06 2015  03 56  -14.4776 17962.9 -13543.8 -37.0158 22496.7
 12 06 2015  03 57  -14.4776 17963.1 -13543.3 -37.0145 22496.5
 12 06 2015  03 58  -14.4777 17962.8 -13542.6 -37.0135 22495.9
 12 06 2015  03 59  -14.4775 17962.8 -13543.6 -37.0155 22496.5
 12 06 2015  04 00  -14.4771 17963.0 -13543.3 -37.0146 22496.4
 12 06 2015  04 01  -14.4766 17963.1 -13543.1 -37.0141 22496.4
 12 06 2015  04 02  -14.4761 17963.0 -13543.3 -37.0146 22496.5
 12 06 2015  04 03  -14.4756 17963.0 -13543.0 -37.0140 22496.3
 12 06 2015  04 04  -14.4750 17963.0 -13543.1 -37.0141 22496.4
 12 06 2015  04 05  -14.4746 17962.8 -13543.2 -37.0147 22496.2
 12 06 2015  04 06  -14.4746 17962.6 -13542.9 -37.0144 22495.9
 12 06 2015  04 07  -14.4746 17962.5 -13542.9 -37.0146 22495.8
 12 06 2015  04 08  -14.4744 17962.5 -13543.5 -37.0158 22496.1
 12 06 2015  04 09  -14.4745 17962.3 -13542.5 -37.0141 22495.4
 12 06 2015  04 10  -14.4744 17962.2 -13543.3 -37.0157 22495.8
 12 06 2015  04 11  -14.4745 17962.2 -13543.1 -37.0155 22495.7
 12 06 2015  04 12  -14.4743 17962.2 -13543.4 -37.0160 22495.9
 12 06 2015  04 13  -14.4746 17962.1 -13543.7 -37.0169 22496.0
 12 06 2015  04 14  -14.4748 17962.1 -13542.9 -37.0151 22495.5
 12 06 2015  04 15  -14.4749 17962.1 -13543.9 -37.0171 22496.1
 12 06 2015  04 16  -14.4755 17962.2 -13543.3 -37.0159 22495.8
 12 06 2015  04 17  -14.4758 17962.2 -13543.0 -37.0151 22495.6
 12 06 2015  04 18  -14.4764 17962.1 -13543.2 -37.0158 22495.7
 12 06 2015  04 19  -14.4768 17961.8 -13543.3 -37.0163 22495.5
 12 06 2015  04 20  -14.4769 17961.8 -13543.6 -37.0170 22495.6
 12 06 2015  04 21  -14.4771 17961.7 -13543.8 -37.0177 22495.7
 12 06 2015  04 22  -14.4775 17961.8 -13544.0 -37.0178 22495.8
 12 06 2015  04 23  -14.4778 17961.7 -13544.0 -37.0179 22495.8
 12 06 2015  04 24  -14.4781 17961.6 -13543.2 -37.0165 22495.2
 12 06 2015  04 25  -14.4778 17961.5 -13543.6 -37.0176 22495.5
 12 06 2015  04 26  -14.4773 17961.4 -13543.4 -37.0172 22495.3
 12 06 2015  04 27  -14.4765 17961.5 -13543.8 -37.0179 22495.5
 12 06 2015  04 28  -14.4762 17961.4 -13543.3 -37.0170 22495.1
 12 06 2015  04 29  -14.4756 17961.3 -13543.8 -37.0181 22495.4
 12 06 2015  04 30  -14.4749 17961.1 -13544.1 -37.0191 22495.4
 12 06 2015  04 31  -14.4743 17960.7 -13543.5 -37.0185 22494.7
 12 06 2015  04 32  -14.4736 17960.4 -13543.9 -37.0198 22494.8
 12 06 2015  04 33  -14.4738 17960.2 -13544.2 -37.0206 22494.8
 12 06 2015  04 34  -14.4744 17960.3 -13544.5 -37.0212 22495.0
 12 06 2015  04 35  -14.4752 17960.2 -13544.1 -37.0204 22494.7
 12 06 2015  04 36  -14.4758 17960.1 -13543.6 -37.0195 22494.3
 12 06 2015  04 37  -14.4768 17959.8 -13543.5 -37.0200 22494.0
 12 06 2015  04 38  -14.4773 17959.7 -13544.4 -37.0219 22494.5
 12 06 2015  04 39  -14.4782 17959.6 -13543.2 -37.0196 22493.6
 12 06 2015  04 40  -14.4785 17959.5 -13544.0 -37.0214 22494.1
 12 06 2015  04 41  -14.4789 17959.4 -13543.7 -37.0210 22493.8
 12 06 2015  04 42  -14.4791 17959.3 -13543.9 -37.0214 22493.9
 12 06 2015  04 43  -14.4790 17959.3 -13544.3 -37.0224 22494.1
 12 06 2015  04 44  -14.4789 17959.2 -13543.9 -37.0216 22493.8
 12 06 2015  04 45  -14.4789 17959.2 -13544.3 -37.0226 22494.0
 12 06 2015  04 46  -14.4789 17959.2 -13544.0 -37.0218 22493.8
 12 06 2015  04 47  -14.4791 17959.4 -13543.5 -37.0205 22493.7
 12 06 2015  04 48  -14.4791 17959.6 -13543.8 -37.0209 22494.0
 12 06 2015  04 49  -14.4794 17959.5 -13543.5 -37.0204 22493.7
 12 06 2015  04 50  -14.4793 17959.3 -13543.6 -37.0210 22493.7
 12 06 2015  04 51  -14.4791 17959.3 -13544.6 -37.0228 22494.3
 12 06 2015  04 52  -14.4791 17959.4 -13544.8 -37.0232 22494.5
 12 06 2015  04 53  -14.4787 17959.6 -13544.0 -37.0212 22494.1
 12 06 2015  04 54  -14.4784 17959.5 -13544.8 -37.0230 22494.6
 12 06 2015  04 55  -14.4786 17959.5 -13544.0 -37.0213 22494.1
 12 06 2015  04 56  -14.4787 17959.5 -13544.3 -37.0220 22494.3
 12 06 2015  04 57  -14.4786 17959.7 -13543.8 -37.0207 22494.1
 12 06 2015  04 58  -14.4785 17959.8 -13544.1 -37.0211 22494.4
 12 06 2015  04 59  -14.4785 17959.8 -13544.5 -37.0219 22494.6
 12 06 2015  05 00  -14.4786 17959.8 -13544.3 -37.0215 22494.5
 12 06 2015  05 01  -14.4788 17959.6 -13544.6 -37.0224 22494.5
 12 06 2015  05 02  -14.4790 17959.6 -13544.2 -37.0216 22494.3
 12 06 2015  05 03  -14.4782 17959.8 -13544.3 -37.0215 22494.4
 12 06 2015  05 04  -14.4774 17960.1 -13544.4 -37.0213 22494.8
 12 06 2015  05 05  -14.4766 17960.3 -13544.5 -37.0212 22495.0
 12 06 2015  05 06  -14.4760 17960.5 -13544.7 -37.0213 22495.2
 12 06 2015  05 07  -14.4758 17960.6 -13544.2 -37.0201 22495.1
 12 06 2015  05 08  -14.4752 17960.8 -13544.2 -37.0198 22495.3
 12 06 2015  05 09  -14.4746 17961.3 -13544.4 -37.0195 22495.7
 12 06 2015  05 10  -14.4745 17961.2 -13544.6 -37.0200 22495.8
 12 06 2015  05 11  -14.4733 17961.8 -13545.1 -37.0202 22496.5
 12 06 2015  05 12  -14.4733 17961.8 -13544.6 -37.0190 22496.3
 12 06 2015  05 13  -14.4730 17962.0 -13544.7 -37.0189 22496.5
 12 06 2015  05 14  -14.4731 17962.3 -13544.4 -37.0178 22496.5
 12 06 2015  05 15  -14.4724 17962.8 -13544.4 -37.0170 22497.0
 12 06 2015  05 16  -14.4718 17963.1 -13544.3 -37.0165 22497.1
 12 06 2015  05 17  -14.4707 17963.5 -13544.5 -37.0163 22497.6
 12 06 2015  05 18  -14.4701 17963.7 -13544.4 -37.0158 22497.7
 12 06 2015  05 19  -14.4695 17963.8 -13544.3 -37.0153 22497.7
 12 06 2015  05 20  -14.4694 17964.0 -13544.4 -37.0152 22497.9
 12 06 2015  05 21  -14.4693 17964.2 -13544.7 -37.0157 22498.2
 12 06 2015  05 22  -14.4701 17964.2 -13543.6 -37.0133 22497.6
 12 06 2015  05 23  -14.4706 17964.0 -13543.7 -37.0139 22497.5
 12 06 2015  05 24  -14.4708 17964.2 -13543.9 -37.0141 22497.7
 12 06 2015  05 25  -14.4709 17964.6 -13544.1 -37.0137 22498.2
 12 06 2015  05 26  -14.4708 17964.6 -13544.4 -37.0144 22498.4
 12 06 2015  05 27  -14.4705 17964.9 -13543.6 -37.0123 22498.2
 12 06 2015  05 28  -14.4697 17965.5 -13544.9 -37.0141 22499.4
 12 06 2015  05 29  -14.4695 17965.8 -13543.7 -37.0110 22498.9
 12 06 2015  05 30  -14.4694 17965.9 -13544.1 -37.0119 22499.3
 12 06 2015  05 31  -14.4692 17966.0 -13543.7 -37.0108 22499.1
 12 06 2015  05 32  -14.4693 17966.2 -13543.3 -37.0096 22499.0
 12 06 2015  05 33  -14.4687 17966.5 -13543.9 -37.0104 22499.6
 12 06 2015  05 34  -14.4686 17966.4 -13544.3 -37.0115 22499.7
 12 06 2015  05 35  -14.4679 17966.7 -13543.7 -37.0096 22499.6
 12 06 2015  05 36  -14.4676 17966.8 -13543.6 -37.0095 22499.7
 12 06 2015  05 37  -14.4671 17966.8 -13543.8 -37.0098 22499.8
 12 06 2015  05 38  -14.4674 17966.7 -13543.9 -37.0100 22499.8
 12 06 2015  05 39  -14.4679 17966.8 -13543.6 -37.0094 22499.7
 12 06 2015  05 40  -14.4682 17966.9 -13543.7 -37.0094 22499.8
 12 06 2015  05 41  -14.4686 17966.8 -13543.8 -37.0097 22499.8
 12 06 2015  05 42  -14.4688 17966.9 -13543.6 -37.0092 22499.8
 12 06 2015  05 43  -14.4689 17967.1 -13544.2 -37.0102 22500.2
 12 06 2015  05 44  -14.4688 17967.5 -13544.1 -37.0095 22500.5
 12 06 2015  05 45  -14.4690 17967.6 -13544.6 -37.0102 22500.9
 12 06 2015  05 46  -14.4693 17967.6 -13544.5 -37.0099 22500.8
 12 06 2015  05 47  -14.4691 17967.7 -13544.0 -37.0087 22500.6
 12 06 2015  05 48  -14.4688 17967.7 -13544.2 -37.0092 22500.8
 12 06 2015  05 49  -14.4689 17967.5 -13543.4 -37.0078 22500.1
 12 06 2015  05 50  -14.4690 17967.7 -13543.9 -37.0086 22500.6
 12 06 2015  05 51  -14.4688 17967.9 -13543.5 -37.0076 22500.5
 12 06 2015  05 52  -14.4687 17968.0 -13543.9 -37.0082 22500.8
 12 06 2015  05 53  -14.4687 17968.0 -13543.5 -37.0074 22500.6
 12 06 2015  05 54  -14.4681 17968.2 -13544.0 -37.0081 22501.0
 12 06 2015  05 55  -14.4678 17968.2 -13543.4 -37.0068 22500.7
 12 06 2015  05 56  -14.4679 17967.9 -13543.6 -37.0077 22500.6
 12 06 2015  05 57  -14.4679 17967.8 -13543.5 -37.0076 22500.4
 12 06 2015  05 58  -14.4676 17967.9 -13543.4 -37.0073 22500.5
 12 06 2015  05 59  -14.4673 17967.9 -13543.6 -37.0076 22500.6
 12 06 2015  06 00  -14.4673 17967.8 -13543.6 -37.0079 22500.5
 12 06 2015  06 01  -14.4673 17967.6 -13543.9 -37.0087 22500.5
 12 06 2015  06 02  -14.4675 17967.5 -13543.5 -37.0081 22500.1
 12 06 2015  06 03  -14.4677 17967.2 -13543.9 -37.0093 22500.2
 12 06 2015  06 04  -14.4681 17967.1 -13543.3 -37.0084 22499.7
 12 06 2015  06 05  -14.4685 17967.0 -13543.4 -37.0088 22499.7
 12 06 2015  06 06  -14.4689 17966.8 -13543.5 -37.0091 22499.6
 12 06 2015  06 07  -14.4690 17966.8 -13543.4 -37.0089 22499.6
 12 06 2015  06 08  -14.4689 17966.8 -13543.6 -37.0093 22499.7
 12 06 2015  06 09  -14.4689 17966.8 -13543.7 -37.0094 22499.7
 12 06 2015  06 10  -14.4690 17966.7 -13543.4 -37.0092 22499.5
 12 06 2015  06 11  -14.4690 17966.6 -13543.7 -37.0099 22499.6
 12 06 2015  06 12  -14.4688 17966.6 -13543.6 -37.0097 22499.5
 12 06 2015  06 13  -14.4684 17966.6 -13543.9 -37.0104 22499.7
 12 06 2015  06 14  -14.4686 17966.5 -13543.4 -37.0095 22499.3
 12 06 2015  06 15  -14.4685 17966.6 -13544.2 -37.0110 22499.9
 12 06 2015  06 16  -14.4685 17966.6 -13544.1 -37.0107 22499.8
 12 06 2015  06 17  -14.4684 17966.6 -13543.8 -37.0100 22499.6
 12 06 2015  06 18  -14.4687 17966.6 -13542.9 -37.0082 22499.1
 12 06 2015  06 19  -14.4685 17966.6 -13544.0 -37.0105 22499.8
 12 06 2015  06 20  -14.4683 17966.6 -13543.8 -37.0101 22499.6
 12 06 2015  06 21  -14.4685 17966.5 -13543.9 -37.0103 22499.6
 12 06 2015  06 22  -14.4685 17966.7 -13543.5 -37.0095 22499.5
 12 06 2015  06 23  -14.4685 17966.7 -13543.3 -37.0088 22499.4
 12 06 2015  06 24  -14.4688 17966.7 -13543.1 -37.0085 22499.2
 12 06 2015  06 25  -14.4688 17966.7 -13543.4 -37.0091 22499.4
 12 06 2015  06 26  -14.4688 17966.8 -13543.7 -37.0096 22499.7
 12 06 2015  06 27  -14.4690 17966.8 -13544.1 -37.0104 22500.0
 12 06 2015  06 28  -14.4694 17966.7 -13543.3 -37.0088 22499.4
 12 06 2015  06 29  -14.4693 17966.8 -13544.2 -37.0107 22500.0
 12 06 2015  06 30  -14.4692 17966.7 -13544.1 -37.0105 22499.9
 12 06 2015  06 31  -14.4695 17967.0 -13543.1 -37.0080 22499.5
 12 06 2015  06 32  -14.4694 17967.0 -13543.8 -37.0093 22499.9
 12 06 2015  06 33  -14.4697 17967.0 -13544.1 -37.0101 22500.2
 12 06 2015  06 34  -14.4701 17967.0 -13543.5 -37.0087 22499.7
 12 06 2015  06 35  -14.4702 17966.9 -13543.7 -37.0094 22499.8
 12 06 2015  06 36  -14.4704 17967.0 -13544.0 -37.0099 22500.1
 12 06 2015  06 37  -14.4706 17967.2 -13543.6 -37.0089 22500.0
 12 06 2015  06 38  -14.4706 17967.0 -13543.3 -37.0084 22499.7
 12 06 2015  06 39  -14.4700 17967.0 -13544.1 -37.0100 22500.1
 12 06 2015  06 40  -14.4696 17967.0 -13542.7 -37.0074 22499.3
 12 06 2015  06 41  -14.4691 17967.0 -13543.1 -37.0081 22499.5
 12 06 2015  06 42  -14.4690 17966.8 -13543.7 -37.0096 22499.8
 12 06 2015  06 43  -14.4690 17966.8 -13543.6 -37.0092 22499.7
 12 06 2015  06 44  -14.4691 17966.8 -13543.3 -37.0086 22499.5
 12 06 2015  06 45  -14.4689 17966.9 -13543.7 -37.0094 22499.7
 12 06 2015  06 46  -14.4687 17966.9 -13543.8 -37.0095 22499.9
 12 06 2015  06 47  -14.4684 17967.1 -13543.0 -37.0077 22499.5
 12 06 2015  06 48  -14.4682 17967.0 -13543.6 -37.0090 22499.8
 12 06 2015  06 49  -14.4685 17967.1 -13544.2 -37.0101 22500.2
 12 06 2015  06 50  -14.4691 17967.1 -13543.6 -37.0088 22499.9
 12 06 2015  06 51  -14.4696 17967.1 -13543.8 -37.0094 22500.0
 12 06 2015  06 52  -14.4699 17967.0 -13544.2 -37.0102 22500.2
 12 06 2015  06 53  -14.4707 17967.1 -13544.0 -37.0097 22500.1
 12 06 2015  06 54  -14.4710 17967.1 -13543.4 -37.0084 22499.8
 12 06 2015  06 55  -14.4707 17967.1 -13543.8 -37.0093 22500.0
 12 06 2015  06 56  -14.4708 17967.1 -13542.9 -37.0074 22499.4
 12 06 2015  06 57  -14.4709 17967.2 -13543.4 -37.0083 22499.8
 12 06 2015  06 58  -14.4709 17967.4 -13544.0 -37.0093 22500.4
 12 06 2015  06 59  -14.4711 17967.4 -13544.1 -37.0093 22500.5
 12 06 2015  07 00  -14.4712 17967.6 -13543.3 -37.0076 22500.2
 12 06 2015  07 01  -14.4712 17967.7 -13543.6 -37.0081 22500.4
 12 06 2015  07 02  -14.4714 17967.9 -13543.7 -37.0079 22500.6
 12 06 2015  07 03  -14.4717 17968.0 -13543.6 -37.0075 22500.6
 12 06 2015  07 04  -14.4720 17968.0 -13543.8 -37.0079 22500.7
 12 06 2015  07 05  -14.4723 17968.0 -13542.8 -37.0060 22500.1
 12 06 2015  07 06  -14.4721 17968.1 -13543.4 -37.0069 22500.5
 12 06 2015  07 07  -14.4718 17968.3 -13543.7 -37.0073 22500.9
 12 06 2015  07 08  -14.4716 17968.3 -13543.6 -37.0071 22500.9
 12 06 2015  07 09  -14.4711 17968.5 -13543.6 -37.0067 22501.0
 12 06 2015  07 10  -14.4705 17968.4 -13543.6 -37.0069 22501.0
 12 06 2015  07 11  -14.4704 17968.5 -13543.9 -37.0075 22501.2
 12 06 2015  07 12  -14.4705 17968.6 -13543.8 -37.0071 22501.2
 12 06 2015  07 13  -14.4707 17968.6 -13543.6 -37.0067 22501.1
 12 06 2015  07 14  -14.4707 17968.4 -13543.3 -37.0063 22500.8
 12 06 2015  07 15  -14.4703 17968.6 -13543.6 -37.0066 22501.1
 12 06 2015  07 16  -14.4699 17968.8 -13543.3 -37.0056 22501.1
 12 06 2015  07 17  -14.4695 17968.9 -13543.6 -37.0060 22501.3
 12 06 2015  07 18  -14.4695 17968.7 -13543.7 -37.0066 22501.3
 12 06 2015  07 19  -14.4697 17968.8 -13543.2 -37.0056 22501.0
 12 06 2015  07 20  -14.4697 17968.9 -13543.3 -37.0055 22501.2
 12 06 2015  07 21  -14.4700 17968.8 -13543.6 -37.0062 22501.2
 12 06 2015  07 22  -14.4700 17968.9 -13543.3 -37.0055 22501.2
 12 06 2015  07 23  -14.4700 17969.1 -13543.2 -37.0049 22501.3
 12 06 2015  07 24  -14.4699 17969.1 -13543.3 -37.0052 22501.3
 12 06 2015  07 25  -14.4698 17969.3 -13543.7 -37.0057 22501.8
 12 06 2015  07 26  -14.4697 17969.4 -13543.9 -37.0060 22501.9
 12 06 2015  07 27  -14.4698 17969.5 -13543.5 -37.0050 22501.7
 12 06 2015  07 28  -14.4700 17969.5 -13543.6 -37.0052 22501.8
 12 06 2015  07 29  -14.4697 17969.6 -13543.6 -37.0049 22501.9
 12 06 2015  07 30  -14.4696 17969.6 -13543.0 -37.0039 22501.6
 12 06 2015  07 31  -14.4697 17969.6 -13543.6 -37.0052 22501.9
 12 06 2015  07 32  -14.4692 17969.7 -13543.9 -37.0055 22502.1
 12 06 2015  07 33  -14.4688 17969.9 -13543.4 -37.0042 22502.0
 12 06 2015  07 34  -14.4685 17970.0 -13543.6 -37.0044 22502.2
 12 06 2015  07 35  -14.4681 17970.2 -13543.4 -37.0038 22502.2
 12 06 2015  07 36  -14.4678 17970.3 -13543.2 -37.0031 22502.2
 12 06 2015  07 37  -14.4673 17970.3 -13543.6 -37.0041 22502.4
 12 06 2015  07 38  -14.4665 17970.4 -13543.9 -37.0045 22502.7
 12 06 2015  07 39  -14.4663 17970.4 -13543.1 -37.0028 22502.2
 12 06 2015  07 40  -14.4656 17970.3 -13543.2 -37.0031 22502.2
 12 06 2015  07 41  -14.4648 17970.4 -13543.4 -37.0034 22502.4
 12 06 2015  07 42  -14.4644 17970.3 -13542.9 -37.0026 22502.1
 12 06 2015  07 43  -14.4643 17970.5 -13542.7 -37.0019 22502.0
 12 06 2015  07 44  -14.4642 17970.5 -13543.0 -37.0025 22502.2
 12 06 2015  07 45  -14.4645 17970.5 -13543.7 -37.0038 22502.7
 12 06 2015  07 46  -14.4648 17970.5 -13543.4 -37.0032 22502.5
 12 06 2015  07 47  -14.4650 17970.4 -13543.3 -37.0031 22502.4
 12 06 2015  07 48  -14.4650 17970.3 -13543.1 -37.0031 22502.1
 12 06 2015  07 49  -14.4650 17970.2 -13543.6 -37.0041 22502.4
 12 06 2015  07 50  -14.4651 17970.1 -13543.5 -37.0040 22502.3
 12 06 2015  07 51  -14.4655 17970.3 -13542.7 -37.0021 22501.9
 12 06 2015  07 52  -14.4654 17970.6 -13543.5 -37.0035 22502.6
 12 06 2015  07 53  -14.4655 17970.7 -13544.3 -37.0048 22503.2
 12 06 2015  07 54  -14.4655 17970.7 -13543.4 -37.0029 22502.7
 12 06 2015  07 55  -14.4652 17970.8 -13543.2 -37.0024 22502.6
 12 06 2015  07 56  -14.4649 17970.8 -13543.8 -37.0036 22503.0
 12 06 2015  07 57  -14.4647 17970.7 -13543.6 -37.0035 22502.8
 12 06 2015  07 58  -14.4646 17970.7 -13543.4 -37.0029 22502.6
 12 06 2015  07 59  -14.4646 17970.6 -13543.6 -37.0036 22502.7
 12 06 2015  08 00  -14.4647 17970.6 -13543.3 -37.0029 22502.5
 12 06 2015  08 01  -14.4645 17970.6 -13543.6 -37.0035 22502.7
 12 06 2015  08 02  -14.4647 17970.6 -13543.7 -37.0038 22502.7
 12 06 2015  08 03  -14.4651 17970.5 -13543.6 -37.0038 22502.6
 12 06 2015  08 04  -14.4652 17970.6 -13543.6 -37.0036 22502.7
 12 06 2015  08 05  -14.4651 17970.7 -13543.6 -37.0035 22502.8
 12 06 2015  08 06  -14.4652 17970.4 -13543.7 -37.0040 22502.6
 12 06 2015  08 07  -14.4654 17970.4 -13543.5 -37.0036 22502.5
 12 06 2015  08 08  -14.4656 17970.4 -13543.5 -37.0036 22502.5
 12 06 2015  08 09  -14.4655 17970.4 -13543.7 -37.0039 22502.6
 12 06 2015  08 10  -14.4656 17970.5 -13543.6 -37.0038 22502.6
 12 06 2015  08 11  -14.4656 17970.6 -13543.5 -37.0034 22502.7
 12 06 2015  08 12  -14.4655 17970.7 -13543.6 -37.0033 22502.8
 12 06 2015  08 13  -14.4654 17970.8 -13543.6 -37.0034 22502.9
 12 06 2015  08 14  -14.4648 17970.8 -13543.6 -37.0032 22502.9
 12 06 2015  08 15  -14.4647 17970.7 -13543.6 -37.0033 22502.7
 12 06 2015  08 16  -14.4650 17970.6 -13543.5 -37.0034 22502.6
 12 06 2015  08 17  -14.4648 17970.7 -13543.6 -37.0034 22502.7
 12 06 2015  08 18  -14.4648 17970.7 -13543.6 -37.0034 22502.8
 12 06 2015  08 19  -14.4650 17970.7 -13543.6 -37.0033 22502.8
 12 06 2015  08 20  -14.4651 17970.8 -13543.7 -37.0033 22502.9
 12 06 2015  08 21  -14.4646 17970.6 -13543.7 -37.0037 22502.8
 12 06 2015  08 22  -14.4644 17970.7 -13543.5 -37.0033 22502.7
 12 06 2015  08 23  -14.4637 17970.4 -13543.6 -37.0039 22502.6
 12 06 2015  08 24  -14.4638 17970.5 -13543.6 -37.0038 22502.6
 12 06 2015  08 25  -14.4639 17970.7 -13543.6 -37.0035 22502.8
 12 06 2015  08 26  -14.4632 17970.8 -13543.7 -37.0036 22502.9
 12 06 2015  08 27  -14.4625 17971.0 -13543.8 -37.0033 22503.1
 12 06 2015  08 28  -14.4627 17971.0 -13543.9 -37.0035 22503.2
 12 06 2015  08 29  -14.4626 17971.2 -13543.7 -37.0028 22503.3
 12 06 2015  08 30  -14.4622 17971.1 -13544.0 -37.0037 22503.3
 12 06 2015  08 31  -14.4622 17971.2 -13543.1 -37.0015 22502.9
 12 06 2015  08 32  -14.4617 17971.3 -13543.8 -37.0029 22503.4
 12 06 2015  08 33  -14.4611 17971.1 -13543.2 -37.0020 22502.8
 12 06 2015  08 34  -14.4615 17971.0 -13543.4 -37.0025 22502.9
 12 06 2015  08 35  -14.4615 17971.1 -13543.6 -37.0027 22503.1
 12 06 2015  08 36  -14.4613 17970.6 -13543.5 -37.0034 22502.6
 12 06 2015  08 37  -14.4614 17971.1 -13543.7 -37.0031 22503.2
 12 06 2015  08 38  -14.4618 17970.8 -13543.6 -37.0032 22502.9
 12 06 2015  08 39  -14.4618 17971.3 -13543.8 -37.0029 22503.4
 12 06 2015  08 40  -14.4616 17971.0 -13543.5 -37.0028 22502.9
 12 06 2015  08 41  -14.4615 17971.3 -13543.9 -37.0031 22503.4
 12 06 2015  08 42  -14.4612 17970.8 -13543.7 -37.0034 22502.9
 12 06 2015  08 43  -14.4615 17970.9 -13543.3 -37.0026 22502.8
 12 06 2015  08 44  -14.4615 17970.5 -13543.0 -37.0024 22502.2
 12 06 2015  08 45  -14.4623 17971.1 -13543.5 -37.0026 22503.0
 12 06 2015  08 46  -14.4623 17970.9 -13542.9 -37.0016 22502.5
 12 06 2015  08 47  -14.4622 17971.3 -13543.6 -37.0026 22503.3
 12 06 2015  08 48  -14.4611 17971.1 -13544.1 -37.0039 22503.4
 12 06 2015  08 49  -14.4614 17970.8 -13543.6 -37.0033 22502.9
 12 06 2015  08 50  -14.4616 17971.1 -13544.0 -37.0038 22503.3
 12 06 2015  08 51  -14.4619 17970.7 -13544.0 -37.0042 22503.0
 12 06 2015  08 52  -14.4623 17971.2 -13543.6 -37.0026 22503.2
 12 06 2015  08 53  -14.4618 17971.0 -13543.8 -37.0033 22503.2
 12 06 2015  08 54  -14.4614 17971.4 -13543.6 -37.0023 22503.4
 12 06 2015  08 55  -14.4607 17971.2 -13543.7 -37.0028 22503.2
 12 06 2015  08 56  -14.4610 17971.0 -13543.7 -37.0030 22503.1
 12 06 2015  08 57  -14.4616 17971.5 -13543.8 -37.0025 22503.5
 12 06 2015  08 58  -14.4615 17971.1 -13543.8 -37.0031 22503.2
 12 06 2015  08 59  -14.4614 17970.9 -13543.6 -37.0031 22502.9
 12 06 2015  09 00  -14.4610 17970.9 -13543.9 -37.0036 22503.1
 12 06 2015  09 01  -14.4615 17971.3 -13543.6 -37.0025 22503.2
 12 06 2015  09 02  -14.4612 17970.5 -13543.7 -37.0037 22502.7
 12 06 2015  09 03  -14.4629 17971.3 -13543.8 -37.0028 22503.3
 12 06 2015  09 04  -14.4623 17970.6 -13543.8 -37.0039 22502.8
 12 06 2015  09 05  -14.4628 17971.0 -13544.0 -37.0038 22503.2
 12 06 2015  09 06  -14.4622 17970.8 -13544.0 -37.0040 22503.0
 12 06 2015  09 07  -14.4621 17971.0 -13544.0 -37.0036 22503.3
 12 06 2015  09 08  -14.4617 17971.3 -13544.0 -37.0033 22503.6
 12 06 2015  09 09  -14.4615 17971.3 -13544.1 -37.0034 22503.6
 12 06 2015  09 10  -14.4610 17971.2 -13543.8 -37.0029 22503.3
 12 06 2015  09 11  -14.4616 17971.6 -13544.0 -37.0030 22503.7
 12 06 2015  09 12  -14.4612 17971.2 -13544.3 -37.0042 22503.6
 12 06 2015  09 13  -14.4606 17971.0 -13544.6 -37.0050 22503.6
 12 06 2015  09 14  -14.4615 17971.1 -13544.1 -37.0039 22503.4
 12 06 2015  09 15  -14.4609 17971.5 -13544.2 -37.0035 22503.8
 12 06 2015  09 16  -14.4615 17971.9 -13543.6 -37.0017 22503.7
 12 06 2015  09 17  -14.4610 17972.1 -13544.0 -37.0020 22504.2
 12 06 2015  09 18  -14.4609 17971.9 -13543.8 -37.0021 22503.9
 12 06 2015  09 19  -14.4606 17971.5 -13543.7 -37.0024 22503.5
 12 06 2015  09 20  -14.4605 17971.3 -13543.3 -37.0017 22503.1
 12 06 2015  09 21  -14.4614 17971.6 -13544.5 -37.0038 22504.0
 12 06 2015  09 22  -14.4618 17970.9 -13543.6 -37.0032 22502.9
 12 06 2015  09 23  -14.4630 17972.2 -13544.3 -37.0025 22504.4
 12 06 2015  09 24  -14.4622 17972.2 -13544.1 -37.0021 22504.2
 12 06 2015  09 25  -14.4618 17972.0 -13543.9 -37.0020 22504.0
 12 06 2015  09 26  -14.4617 17972.3 -13544.1 -37.0019 22504.4
 12 06 2015  09 27  -14.4617 17972.0 -13543.9 -37.0022 22504.0
 12 06 2015  09 28  -14.4612 17971.9 -13544.0 -37.0023 22504.0
 12 06 2015  09 29  -14.4622 17972.3 -13544.0 -37.0016 22504.3
 12 06 2015  09 30  -14.4614 17972.1 -13544.1 -37.0021 22504.2
 12 06 2015  09 31  -14.4616 17972.6 -13543.5 -37.0002 22504.3
 12 06 2015  09 32  -14.4608 17972.4 -13543.7 -37.0011 22504.2
 12 06 2015  09 33  -14.4611 17972.5 -13543.9 -37.0012 22504.4
 12 06 2015  09 34  -14.4619 17973.0 -13543.7 -37.0001 22504.7
 12 06 2015  09 35  -14.4609 17972.2 -13543.7 -37.0012 22504.0
 12 06 2015  09 36  -14.4623 17973.6 -13543.9 -36.9994 22505.3
 12 06 2015  09 37  -14.4606 17972.9 -13543.6 -36.9999 22504.5
 12 06 2015  09 38  -14.4609 17973.4 -13543.7 -36.9994 22505.0
 12 06 2015  09 39  -14.4611 17973.7 -13543.8 -36.9992 22505.3
 12 06 2015  09 40  -14.4608 17973.8 -13543.7 -36.9987 22505.3
 12 06 2015  09 41  -14.4604 17974.0 -13543.6 -36.9984 22505.5
 12 06 2015  09 42  -14.4598 17974.3 -13543.4 -36.9974 22505.5
 12 06 2015  09 43  -14.4598 17974.2 -13543.4 -36.9975 22505.5
 12 06 2015  09 44  -14.4594 17974.6 -13543.2 -36.9966 22505.7
 12 06 2015  09 45  -14.4586 17974.7 -13543.4 -36.9967 22505.9
 12 06 2015  09 46  -14.4581 17975.0 -13543.4 -36.9964 22506.1
 12 06 2015  09 47  -14.4576 17975.2 -13543.1 -36.9954 22506.0
 12 06 2015  09 48  -14.4571 17975.0 -13543.5 -36.9965 22506.2
 12 06 2015  09 49  -14.4569 17975.3 -13543.1 -36.9952 22506.1
 12 06 2015  09 50  -14.4564 17975.3 -13542.9 -36.9949 22506.0
 12 06 2015  09 51  -14.4569 17975.6 -13543.0 -36.9948 22506.3
 12 06 2015  09 52  -14.4568 17975.3 -13542.8 -36.9947 22506.0
 12 06 2015  09 53  -14.4568 17975.5 -13542.9 -36.9946 22506.1
 12 06 2015  09 54  -14.4564 17975.7 -13542.6 -36.9937 22506.2
 12 06 2015  09 55  -14.4559 17975.7 -13542.4 -36.9931 22506.1
 12 06 2015  09 56  -14.4555 17976.0 -13542.2 -36.9924 22506.1
 12 06 2015  09 57  -14.4548 17976.1 -13542.3 -36.9925 22506.3
 12 06 2015  09 58  -14.4538 17976.3 -13542.7 -36.9931 22506.7
 12 06 2015  09 59  -14.4539 17976.5 -13542.2 -36.9916 22506.6
 12 06 2015  10 00  -14.4538 17976.5 -13542.1 -36.9914 22506.5
 12 06 2015  10 01  -14.4532 17976.6 -13542.3 -36.9918 22506.7
 12 06 2015  10 02  -14.4530 17976.7 -13542.1 -36.9910 22506.7
 12 06 2015  10 03  -14.4530 17976.7 -13542.0 -36.9911 22506.6
 12 06 2015  10 04  -14.4529 17976.7 -13542.0 -36.9910 22506.6
 12 06 2015  10 05  -14.4528 17976.5 -13541.7 -36.9906 22506.3
 12 06 2015  10 06  -14.4531 17976.6 -13542.0 -36.9911 22506.6
 12 06 2015  10 07  -14.4529 17976.7 -13541.9 -36.9908 22506.5
 12 06 2015  10 08  -14.4527 17976.8 -13541.6 -36.9900 22506.4
 12 06 2015  10 09  -14.4525 17976.6 -13542.0 -36.9912 22506.5
 12 06 2015  10 10  -14.4529 17976.8 -13541.8 -36.9905 22506.6
 12 06 2015  10 11  -14.4527 17976.8 -13541.3 -36.9895 22506.3
 12 06 2015  10 12  -14.4519 17976.7 -13541.0 -36.9890 22506.0
 12 06 2015  10 13  -14.4511 17977.1 -13541.4 -36.9893 22506.6
 12 06 2015  10 14  -14.4508 17976.9 -13541.3 -36.9891 22506.4
 12 06 2015  10 15  -14.4508 17976.8 -13541.3 -36.9893 22506.3
 12 06 2015  10 16  -14.4503 17977.1 -13541.5 -36.9892 22506.7
 12 06 2015  10 17  -14.4494 17976.7 -13540.9 -36.9887 22506.0
 12 06 2015  10 18  -14.4493 17977.3 -13541.3 -36.9886 22506.7
 12 06 2015  10 19  -14.4488 17977.3 -13541.5 -36.9889 22506.8
 12 06 2015  10 20  -14.4478 17976.8 -13541.6 -36.9900 22506.5
 12 06 2015  10 21  -14.4480 17977.4 -13541.5 -36.9887 22506.9
 12 06 2015  10 22  -14.4468 17977.3 -13541.6 -36.9892 22506.8
 12 06 2015  10 23  -14.4463 17977.6 -13541.6 -36.9889 22507.1
 12 06 2015  10 24  -14.4460 17978.0 -13541.7 -36.9884 22507.5
 12 06 2015  10 25  -14.4451 17978.1 -13541.6 -36.9881 22507.5
 12 06 2015  10 26  -14.4442 17978.0 -13541.5 -36.9880 22507.4
 12 06 2015  10 27  -14.4443 17978.2 -13541.4 -36.9874 22507.4
 12 06 2015  10 28  -14.4432 17977.9 -13541.7 -36.9883 22507.4
 12 06 2015  10 29  -14.4439 17978.4 -13541.4 -36.9872 22507.6
 12 06 2015  10 30  -14.4437 17978.6 -13541.4 -36.9869 22507.7
 12 06 2015  10 31  -14.4437 17978.8 -13541.4 -36.9866 22507.9
 12 06 2015  10 32  -14.4433 17978.7 -13541.2 -36.9863 22507.8
 12 06 2015  10 33  -14.4433 17978.6 -13541.4 -36.9867 22507.8
 12 06 2015  10 34  -14.4432 17979.0 -13541.7 -36.9869 22508.2
 12 06 2015  10 35  -14.4431 17979.0 -13541.5 -36.9864 22508.2
 12 06 2015  10 36  -14.4432 17979.0 -13541.6 -36.9865 22508.2
 12 06 2015  10 37  -14.4431 17979.2 -13541.1 -36.9853 22508.0
 12 06 2015  10 38  -14.4420 17979.5 -13541.3 -36.9852 22508.5
 12 06 2015  10 39  -14.4419 17979.9 -13541.5 -36.9850 22508.9
 12 06 2015  10 40  -14.4409 17979.8 -13541.3 -36.9848 22508.7
 12 06 2015  10 41  -14.4409 17980.1 -13541.3 -36.9844 22508.9
 12 06 2015  10 42  -14.4410 17980.1 -13541.1 -36.9839 22508.8
 12 06 2015  10 43  -14.4411 17979.9 -13541.4 -36.9847 22508.8
 12 06 2015  10 44  -14.4410 17980.1 -13541.4 -36.9845 22509.0
 12 06 2015  10 45  -14.4406 17980.0 -13541.1 -36.9840 22508.8
 12 06 2015  10 46  -14.4403 17980.1 -13541.3 -36.9842 22508.9
 12 06 2015  10 47  -14.4402 17980.6 -13541.0 -36.9829 22509.2
 12 06 2015  10 48  -14.4396 17980.8 -13541.5 -36.9836 22509.6
 12 06 2015  10 49  -14.4398 17980.5 -13540.8 -36.9827 22508.9
 12 06 2015  10 50  -14.4393 17980.7 -13541.5 -36.9838 22509.6
 12 06 2015  10 51  -14.4388 17981.1 -13541.1 -36.9824 22509.6
 12 06 2015  10 52  -14.4386 17980.8 -13541.1 -36.9829 22509.4
 12 06 2015  10 53  -14.4383 17980.9 -13540.8 -36.9820 22509.2
 12 06 2015  10 54  -14.4390 17981.0 -13541.3 -36.9829 22509.6
 12 06 2015  10 55  -14.4398 17980.8 -13540.8 -36.9823 22509.2
 12 06 2015  10 56  -14.4400 17980.8 -13541.0 -36.9826 22509.3
 12 06 2015  10 57  -14.4401 17980.8 -13541.1 -36.9829 22509.3
 12 06 2015  10 58  -14.4396 17980.7 -13541.1 -36.9829 22509.2
 12 06 2015  10 59  -14.4399 17980.7 -13540.8 -36.9824 22509.1
 12 06 2015  11 00  -14.4406 17980.5 -13541.6 -36.9843 22509.4
 12 06 2015  11 01  -14.4416 17980.5 -13541.4 -36.9838 22509.3
 12 06 2015  11 02  -14.4424 17980.2 -13540.7 -36.9829 22508.6
 12 06 2015  11 03  -14.4432 17980.5 -13541.1 -36.9833 22509.1
 12 06 2015  11 04  -14.4431 17980.8 -13541.2 -36.9830 22509.4
 12 06 2015  11 05  -14.4424 17981.0 -13541.2 -36.9828 22509.6
 12 06 2015  11 06  -14.4413 17981.2 -13541.2 -36.9825 22509.7
 12 06 2015  11 07  -14.4412 17981.2 -13541.4 -36.9829 22509.9
 12 06 2015  11 08  -14.4410 17981.5 -13541.2 -36.9819 22510.0
 12 06 2015  11 09  -14.4411 17981.7 -13541.3 -36.9820 22510.2
 12 06 2015  11 10  -14.4408 17981.6 -13541.0 -36.9814 22509.9
 12 06 2015  11 11  -14.4413 17981.4 -13541.2 -36.9822 22509.8
 12 06 2015  11 12  -14.4416 17981.7 -13541.4 -36.9822 22510.2
 12 06 2015  11 13  -14.4410 17982.1 -13541.0 -36.9805 22510.3
 12 06 2015  11 14  -14.4406 17982.3 -13541.1 -36.9805 22510.6
 12 06 2015  11 15  -14.4404 17982.6 -13541.0 -36.9798 22510.7
 12 06 2015  11 16  -14.4408 17982.8 -13541.0 -36.9796 22510.8
 12 06 2015  11 17  -14.4417 17982.2 -13540.9 -36.9803 22510.3
 12 06 2015  11 18  -14.4419 17982.4 -13540.9 -36.9800 22510.5
 12 06 2015  11 19  -14.4432 17982.6 -13541.0 -36.9799 22510.8
 12 06 2015  11 20  -14.4439 17982.8 -13540.6 -36.9788 22510.6
 12 06 2015  11 21  -14.4434 17982.9 -13540.6 -36.9786 22510.7
 12 06 2015  11 22  -14.4436 17983.0 -13540.7 -36.9786 22510.8
 12 06 2015  11 23  -14.4440 17982.5 -13540.7 -36.9795 22510.4
 12 06 2015  11 24  -14.4442 17982.7 -13541.0 -36.9796 22510.8
 12 06 2015  11 25  -14.4446 17983.2 -13541.1 -36.9791 22511.3
 12 06 2015  11 26  -14.4452 17982.9 -13540.7 -36.9787 22510.8
 12 06 2015  11 27  -14.4456 17983.2 -13541.3 -36.9795 22511.4
 12 06 2015  11 28  -14.4451 17983.6 -13541.1 -36.9786 22511.6
 12 06 2015  11 29  -14.4455 17983.5 -13541.1 -36.9788 22511.5
 12 06 2015  11 30  -14.4459 17983.4 -13541.2 -36.9791 22511.5
 12 06 2015  11 31  -14.4467 17983.7 -13541.3 -36.9789 22511.8
 12 06 2015  11 32  -14.4469 17984.0 -13541.2 -36.9782 22512.0
 12 06 2015  11 33  -14.4471 17984.1 -13540.8 -36.9771 22511.8
 12 06 2015  11 34  -14.4464 17984.2 -13540.9 -36.9771 22512.0
 12 06 2015  11 35  -14.4466 17984.3 -13540.7 -36.9768 22511.9
 12 06 2015  11 36  -14.4463 17984.1 -13540.8 -36.9770 22511.8
 12 06 2015  11 37  -14.4468 17984.5 -13541.1 -36.9772 22512.3
 12 06 2015  11 38  -14.4468 17984.4 -13540.8 -36.9767 22512.1
 12 06 2015  11 39  -14.4472 17984.3 -13541.0 -36.9772 22512.1
 12 06 2015  11 40  -14.4476 17984.5 -13541.0 -36.9771 22512.2
 12 06 2015  11 41  -14.4482 17984.4 -13540.6 -36.9764 22511.9
 12 06 2015  11 42  -14.4484 17984.9 -13540.4 -36.9751 22512.2
 12 06 2015  11 43  -14.4496 17984.4 -13541.0 -36.9771 22512.2
 12 06 2015  11 44  -14.4494 17984.4 -13540.8 -36.9767 22512.0
 12 06 2015  11 45  -14.4498 17984.4 -13541.1 -36.9775 22512.2
 12 06 2015  11 46  -14.4500 17984.3 -13540.4 -36.9761 22511.7
 12 06 2015  11 47  -14.4495 17985.0 -13541.2 -36.9768 22512.8
 12 06 2015  11 48  -14.4501 17985.0 -13541.4 -36.9771 22512.9
 12 06 2015  11 49  -14.4515 17984.1 -13540.4 -36.9762 22511.6
 12 06 2015  11 50  -14.4518 17985.3 -13540.6 -36.9749 22512.7
 12 06 2015  11 51  -14.4525 17985.2 -13539.7 -36.9733 22512.0
 12 06 2015  11 52  -14.4512 17985.8 -13540.6 -36.9741 22513.0
 12 06 2015  11 53  -14.4503 17986.0 -13540.3 -36.9732 22513.0
 12 06 2015  11 54  -14.4520 17986.0 -13540.1 -36.9728 22512.9
 12 06 2015  11 55  -14.4520 17986.0 -13539.6 -36.9719 22512.6
 12 06 2015  11 56  -14.4535 17986.1 -13540.3 -36.9730 22513.1
 12 06 2015  11 57  -14.4544 17986.1 -13539.9 -36.9723 22512.8
 12 06 2015  11 58  -14.4546 17986.5 -13539.4 -36.9706 22512.9
 12 06 2015  11 59  -14.4553 17987.3 -13539.3 -36.9692 22513.4
 12 06 2015  12 00  -14.4554 17986.8 -13539.4 -36.9702 22513.2
 12 06 2015  12 01  -14.4557 17987.2 -13539.0 -36.9688 22513.2
 12 06 2015  12 02  -14.4567 17986.7 -13539.7 -36.9709 22513.2
 12 06 2015  12 03  -14.4577 17987.4 -13539.2 -36.9689 22513.5
 12 06 2015  12 04  -14.4575 17987.6 -13539.4 -36.9690 22513.7
 12 06 2015  12 05  -14.4579 17987.9 -13538.7 -36.9672 22513.6
 12 06 2015  12 06  -14.4585 17987.8 -13538.4 -36.9667 22513.4
 12 06 2015  12 07  -14.4586 17988.7 -13538.8 -36.9661 22514.3
 12 06 2015  12 08  -14.4583 17988.6 -13537.8 -36.9642 22513.6
 12 06 2015  12 09  -14.4589 17988.5 -13538.5 -36.9657 22514.0
 12 06 2015  12 10  -14.4589 17988.8 -13538.0 -36.9644 22513.9
 12 06 2015  12 11  -14.4595 17988.5 -13538.4 -36.9656 22513.9
 12 06 2015  12 12  -14.4604 17988.4 -13537.6 -36.9641 22513.3
 12 06 2015  12 13  -14.4603 17988.8 -13537.4 -36.9631 22513.6
 12 06 2015  12 14  -14.4603 17989.2 -13537.1 -36.9618 22513.7
 12 06 2015  12 15  -14.4602 17989.6 -13537.9 -36.9627 22514.5
 12 06 2015  12 16  -14.4614 17989.0 -13537.7 -36.9634 22513.9
 12 06 2015  12 17  -14.4606 17989.8 -13537.6 -36.9619 22514.5
 12 06 2015  12 18  -14.4607 17989.7 -13537.5 -36.9618 22514.3
 12 06 2015  12 19  -14.4613 17989.5 -13536.4 -36.9600 22513.5
 12 06 2015  12 20  -14.4604 17990.6 -13536.9 -36.9594 22514.7
 12 06 2015  12 21  -14.4619 17989.8 -13536.4 -36.9595 22513.7
 12 06 2015  12 22  -14.4620 17990.1 -13536.7 -36.9597 22514.1
 12 06 2015  12 23  -14.4618 17990.0 -13536.6 -36.9596 22514.0
 12 06 2015  12 24  -14.4613 17990.4 -13536.9 -36.9596 22514.5
 12 06 2015  12 25  -14.4611 17990.9 -13536.7 -36.9584 22514.8
 12 06 2015  12 26  -14.4612 17991.0 -13536.1 -36.9570 22514.5
 12 06 2015  12 27  -14.4605 17991.3 -13535.9 -36.9562 22514.6
 12 06 2015  12 28  -14.4601 17991.6 -13535.8 -36.9556 22514.7
 12 06 2015  12 29  -14.4608 17991.1 -13535.7 -36.9562 22514.3
 12 06 2015  12 30  -14.4602 17991.1 -13535.8 -36.9564 22514.4
 12 06 2015  12 31  -14.4624 17989.6 -13535.5 -36.9579 22513.0
 12 06 2015  12 32  -14.4620 17990.2 -13535.1 -36.9562 22513.3
 12 06 2015  12 33  -14.4628 17990.6 -13535.3 -36.9561 22513.7
 12 06 2015  12 34  -14.4645 17990.0 -13535.1 -36.9566 22513.1
 12 06 2015  12 35  -14.4636 17991.0 -13535.1 -36.9550 22513.9
 12 06 2015  12 36  -14.4648 17990.7 -13534.6 -36.9546 22513.3
 12 06 2015  12 37  -14.4636 17991.3 -13535.5 -36.9555 22514.3
 12 06 2015  12 38  -14.4639 17991.3 -13534.3 -36.9530 22513.7
 12 06 2015  12 39  -14.4638 17991.2 -13534.7 -36.9539 22513.7
 12 06 2015  12 40  -14.4621 17992.2 -13535.2 -36.9534 22514.9
 12 06 2015  12 41  -14.4621 17992.1 -13534.2 -36.9514 22514.2
 12 06 2015  12 42  -14.4617 17992.0 -13533.5 -36.9501 22513.8
 12 06 2015  12 43  -14.4610 17992.2 -13534.1 -36.9512 22514.2
 12 06 2015  12 44  -14.4618 17991.6 -13534.4 -36.9526 22514.0
 12 06 2015  12 45  -14.4614 17991.8 -13533.9 -36.9513 22513.8
 12 06 2015  12 46  -14.4618 17991.3 -13534.4 -36.9531 22513.7
 12 06 2015  12 47  -14.4618 17992.1 -13533.9 -36.9510 22514.0
 12 06 2015  12 48  -14.4633 17991.2 -13534.3 -36.9530 22513.6
 12 06 2015  12 49  -14.4627 17991.7 -13534.4 -36.9525 22514.0
 12 06 2015  12 50  -14.4639 17991.4 -13533.7 -36.9516 22513.4
 12 06 2015  12 51  -14.4627 17992.9 -13534.8 -36.9515 22515.3
 12 06 2015  12 52  -14.4636 17991.7 -13533.9 -36.9515 22513.8
 12 06 2015  12 53  -14.4639 17991.7 -13534.0 -36.9517 22513.8
 12 06 2015  12 54  -14.4640 17992.0 -13534.4 -36.9521 22514.3
 12 06 2015  12 55  -14.4643 17992.6 -13534.0 -36.9503 22514.5
 12 06 2015  12 56  -14.4640 17992.8 -13533.8 -36.9496 22514.6
 12 06 2015  12 57  -14.4631 17993.4 -13534.2 -36.9495 22515.2
 12 06 2015  12 58  -14.4627 17994.1 -13533.9 -36.9480 22515.6
 12 06 2015  12 59  -14.4628 17994.3 -13534.0 -36.9477 22515.9
 12 06 2015  13 00  -14.4622 17994.9 -13533.7 -36.9463 22516.2
 12 06 2015  13 01  -14.4615 17994.4 -13533.5 -36.9465 22515.7
 12 06 2015  13 02  -14.4606 17995.4 -13533.7 -36.9453 22516.6
 12 06 2015  13 03  -14.4608 17995.2 -13533.5 -36.9454 22516.3
 12 06 2015  13 04  -14.4608 17995.5 -13533.5 -36.9450 22516.5
 12 06 2015  13 05  -14.4611 17995.6 -13533.5 -36.9447 22516.6
 12 06 2015  13 06  -14.4608 17995.6 -13533.9 -36.9454 22516.9
 12 06 2015  13 07  -14.4591 17998.9 -13534.3 -36.9412 22519.7
 12 06 2015  13 08  -14.4556 18002.0 -13534.8 -36.9374 22522.5
 12 06 2015  13 09  -14.4505 18005.6 -13535.1 -36.9327 22525.6
 12 06 2015  13 10  -14.4469 18007.7 -13534.9 -36.9291 22527.1
 12 06 2015  13 11  -14.4439 18008.5 -13534.3 -36.9266 22527.4
 12 06 2015  13 12  -14.4444 18009.3 -13534.6 -36.9261 22528.3
 12 06 2015  13 13  -14.4435 18010.6 -13533.6 -36.9220 22528.6
 12 06 2015  13 14  -14.4430 18010.3 -13533.2 -36.9215 22528.2
 12 06 2015  13 15  -14.4423 18009.7 -13532.3 -36.9206 22527.1
 12 06 2015  13 16  -14.4424 18009.5 -13532.1 -36.9206 22526.8
 12 06 2015  13 17  -14.4420 18009.5 -13532.0 -36.9203 22526.8
 12 06 2015  13 18  -14.4430 18010.1 -13532.9 -36.9213 22527.8
 12 06 2015  13 19  -14.4438 18010.7 -13533.0 -36.9207 22528.3
 12 06 2015  13 20  -14.4438 18010.3 -13533.1 -36.9214 22528.1
 12 06 2015  13 21  -14.4448 18009.6 -13532.9 -36.9221 22527.4
 12 06 2015  13 22  -14.4450 18009.6 -13532.6 -36.9216 22527.2
 12 06 2015  13 23  -14.4449 18010.0 -13533.2 -36.9222 22527.9
 12 06 2015  13 24  -14.4441 18010.7 -13533.9 -36.9225 22528.9
 12 06 2015  13 25  -14.4438 18011.4 -13533.6 -36.9208 22529.3
 12 06 2015  13 26  -14.4430 18011.1 -13534.1 -36.9222 22529.4
 12 06 2015  13 27  -14.4430 18010.8 -13533.7 -36.9219 22528.9
 12 06 2015  13 28  -14.4426 18010.6 -13533.9 -36.9226 22528.8
 12 06 2015  13 29  -14.4428 18009.7 -13534.0 -36.9241 22528.2
 12 06 2015  13 30  -14.4430 18009.0 -13533.6 -36.9243 22527.4
 12 06 2015  13 31  -14.4436 18008.7 -13534.0 -36.9257 22527.4
 12 06 2015  13 32  -14.4460 18007.8 -13533.8 -36.9267 22526.5
 12 06 2015  13 33  -14.4487 18007.1 -13533.5 -36.9271 22525.8
 12 06 2015  13 34  -14.4510 18006.5 -13533.9 -36.9289 22525.6
 12 06 2015  13 35  -14.4521 18006.1 -13534.0 -36.9296 22525.3
 12 06 2015  13 36  -14.4520 18006.7 -13534.8 -36.9303 22526.2
 12 06 2015  13 37  -14.4542 18006.4 -13534.4 -36.9299 22525.8
 12 06 2015  13 38  -14.4560 18005.7 -13534.3 -36.9309 22525.2
 12 06 2015  13 39  -14.4568 18006.0 -13534.1 -36.9301 22525.3
 12 06 2015  13 40  -14.4577 18006.4 -13534.5 -36.9302 22525.8
 12 06 2015  13 41  -14.4577 18007.4 -13534.5 -36.9287 22526.6
 12 06 2015  13 42  -14.4568 18007.5 -13534.3 -36.9282 22526.6
 12 06 2015  13 43  -14.4553 18009.2 -13535.3 -36.9275 22528.6
 12 06 2015  13 44  -14.4556 18009.0 -13535.2 -36.9276 22528.3
 12 06 2015  13 45  -14.4558 18008.9 -13535.0 -36.9274 22528.1
 12 06 2015  13 46  -14.4551 18007.9 -13534.4 -36.9278 22527.0
 12 06 2015  13 47  -14.4536 18007.9 -13534.1 -36.9272 22526.8
 12 06 2015  13 48  -14.4526 18007.7 -13534.1 -36.9274 22526.6
 12 06 2015  13 49  -14.4527 18007.2 -13534.7 -36.9294 22526.5
 12 06 2015  13 50  -14.4544 18006.3 -13533.6 -36.9286 22525.3
 12 06 2015  13 51  -14.4557 18005.8 -13534.8 -36.9318 22525.5
 12 06 2015  13 52  -14.4564 18006.9 -13534.4 -36.9294 22526.2
 12 06 2015  13 53  -14.4570 18007.1 -13534.9 -36.9299 22526.6
 12 06 2015  13 54  -14.4568 18007.8 -13534.9 -36.9290 22527.2
 12 06 2015  13 55  -14.4553 18009.2 -13534.6 -36.9262 22528.2
 12 06 2015  13 56  -14.4526 18010.9 -13535.5 -36.9254 22530.1
 12 06 2015  13 57  -14.4506 18011.8 -13535.0 -36.9231 22530.5
 12 06 2015  13 58  -14.4487 18012.5 -13534.4 -36.9207 22530.7
 12 06 2015  13 59  -14.4472 18013.0 -13534.8 -36.9208 22531.3
 12 06 2015  14 00  -14.4465 18012.6 -13534.0 -36.9198 22530.5
 12 06 2015  14 01  -14.4465 18012.0 -13533.9 -36.9204 22529.9
 12 06 2015  14 02  -14.4476 18011.6 -13533.7 -36.9206 22529.5
 12 06 2015  14 03  -14.4483 18011.7 -13533.5 -36.9203 22529.5
 12 06 2015  14 04  -14.4487 18011.9 -13533.5 -36.9199 22529.6
 12 06 2015  14 05  -14.4474 18013.3 -13534.4 -36.9196 22531.3
 12 06 2015  14 06  -14.4466 18013.6 -13533.4 -36.9170 22530.9
 12 06 2015  14 07  -14.4448 18014.3 -13534.0 -36.9172 22531.9
 12 06 2015  14 08  -14.4439 18014.5 -13534.0 -36.9168 22532.0
 12 06 2015  14 09  -14.4442 18014.6 -13532.8 -36.9144 22531.4
 12 06 2015  14 10  -14.4441 18015.3 -13532.6 -36.9128 22531.8
 12 06 2015  14 11  -14.4428 18016.1 -13532.6 -36.9116 22532.4
 12 06 2015  14 12  -14.4414 18016.7 -13532.7 -36.9108 22533.0
 12 06 2015  14 13  -14.4399 18017.1 -13533.1 -36.9110 22533.6
 12 06 2015  14 14  -14.4389 18017.3 -13532.7 -36.9098 22533.5
 12 06 2015  14 15  -14.4392 18016.8 -13532.5 -36.9101 22533.0
 12 06 2015  14 16  -14.4402 18016.6 -13532.4 -36.9105 22532.7
 12 06 2015  14 17  -14.4404 18016.7 -13532.5 -36.9104 22532.8
 12 06 2015  14 18  -14.4402 18016.7 -13532.1 -36.9096 22532.6
 12 06 2015  14 19  -14.4400 18016.7 -13532.9 -36.9111 22533.1
 12 06 2015  14 20  -14.4398 18016.9 -13532.0 -36.9091 22532.7
 12 06 2015  14 21  -14.4393 18017.0 -13532.3 -36.9096 22533.0
 12 06 2015  14 22  -14.4398 18016.6 -13532.0 -36.9097 22532.5
 12 06 2015  14 23  -14.4399 18016.5 -13532.8 -36.9114 22532.8
 12 06 2015  14 24  -14.4400 18016.9 -13532.2 -36.9096 22532.8
 12 06 2015  14 25  -14.4412 18016.6 -13532.0 -36.9096 22532.5
 12 06 2015  14 26  -14.4425 18015.4 -13532.1 -36.9116 22531.5
 12 06 2015  14 27  -14.4426 18014.4 -13531.1 -36.9112 22530.2
 12 06 2015  14 28  -14.4421 18013.8 -13532.0 -36.9137 22530.2
 12 06 2015  14 29  -14.4419 18013.7 -13532.7 -36.9156 22530.6
 12 06 2015  14 30  -14.4416 18013.5 -13532.6 -36.9156 22530.4
 12 06 2015  14 31  -14.4419 18012.9 -13532.6 -36.9164 22529.9
 12 06 2015  14 32  -14.4419 18012.7 -13532.2 -36.9159 22529.4
 12 06 2015  14 33  -14.4414 18012.7 -13532.3 -36.9162 22529.5
 12 06 2015  14 34  -14.4406 18013.2 -13532.5 -36.9157 22530.0
 12 06 2015  14 35  -14.4407 18013.6 -13532.1 -36.9144 22530.1
 12 06 2015  14 36  -14.4409 18013.4 -13532.2 -36.9148 22530.1
 12 06 2015  14 37  -14.4414 18012.7 -13532.1 -36.9157 22529.4
 12 06 2015  14 38  -14.4424 18011.1 -13532.0 -36.9181 22528.1
 12 06 2015  14 39  -14.4436 18009.4 -13530.9 -36.9182 22526.1
 12 06 2015  14 40  -14.4436 18007.9 -13531.3 -36.9216 22525.1
 12 06 2015  14 41  -14.4437 18006.9 -13530.7 -36.9217 22523.9
 12 06 2015  14 42  -14.4432 18006.2 -13531.2 -36.9238 22523.7
 12 06 2015  14 43  -14.4429 18005.8 -13531.5 -36.9251 22523.6
 12 06 2015  14 44  -14.4431 18006.2 -13531.3 -36.9241 22523.8
 12 06 2015  14 45  -14.4431 18006.8 -13532.1 -36.9248 22524.7
 12 06 2015  14 46  -14.4430 18007.8 -13532.3 -36.9237 22525.6
 12 06 2015  14 47  -14.4427 18008.0 -13531.9 -36.9224 22525.6
 12 06 2015  14 48  -14.4420 18008.2 -13532.1 -36.9227 22525.9
 12 06 2015  14 49  -14.4412 18008.3 -13532.0 -36.9223 22525.8
 12 06 2015  14 50  -14.4407 18008.2 -13531.6 -36.9215 22525.5
 12 06 2015  14 51  -14.4400 18008.2 -13530.9 -36.9203 22525.1
 12 06 2015  14 52  -14.4401 18008.0 -13531.4 -36.9216 22525.3
 12 06 2015  14 53  -14.4401 18007.9 -13531.0 -36.9209 22524.9
 12 06 2015  14 54  -14.4407 18007.4 -13530.9 -36.9213 22524.5
 12 06 2015  14 55  -14.4408 18007.0 -13530.4 -36.9211 22523.9
 12 06 2015  14 56  -14.4398 18007.2 -13530.5 -36.9209 22524.1
 12 06 2015  14 57  -14.4399 18007.1 -13530.5 -36.9212 22524.0
 12 06 2015  14 58  -14.4390 18007.5 -13530.3 -36.9201 22524.2
 12 06 2015  14 59  -14.4382 18008.1 -13530.3 -36.9190 22524.7
 12 06 2015  15 00  -14.4386 18007.8 -13530.1 -36.9191 22524.3
 12 06 2015  15 01  -14.4383 18007.8 -13529.9 -36.9188 22524.2
 12 06 2015  15 02  -14.4386 18008.1 -13529.6 -36.9177 22524.2
 12 06 2015  15 03  -14.4386 18008.2 -13529.0 -36.9164 22524.0
 12 06 2015  15 04  -14.4389 18007.9 -13528.9 -36.9166 22523.6
 12 06 2015  15 05  -14.4392 18007.4 -13528.1 -36.9156 22522.8
 12 06 2015  15 06  -14.4388 18007.1 -13528.3 -36.9166 22522.7
 12 06 2015  15 07  -14.4379 18006.7 -13528.3 -36.9171 22522.4
 12 06 2015  15 08  -14.4378 18006.2 -13528.5 -36.9183 22522.0
 12 06 2015  15 09  -14.4399 18005.1 -13527.4 -36.9177 22520.5
 12 06 2015  15 10  -14.4399 18004.3 -13527.3 -36.9189 22519.8
 12 06 2015  15 11  -14.4404 18003.3 -13528.0 -36.9218 22519.4
 12 06 2015  15 12  -14.4424 18002.2 -13528.0 -36.9235 22518.6
 12 06 2015  15 13  -14.4442 18001.3 -13527.3 -36.9233 22517.4
 12 06 2015  15 14  -14.4453 18000.6 -13527.9 -36.9255 22517.2
 12 06 2015  15 15  -14.4455 18000.8 -13528.6 -36.9269 22517.8
 12 06 2015  15 16  -14.4468 18000.2 -13527.7 -36.9259 22516.8
 12 06 2015  15 17  -14.4476 17999.9 -13528.2 -36.9274 22516.9
 12 06 2015  15 18  -14.4481 18000.3 -13528.2 -36.9268 22517.2
 12 06 2015  15 19  -14.4491 18000.0 -13528.5 -36.9278 22517.1
 12 06 2015  15 20  -14.4489 18000.3 -13528.4 -36.9272 22517.3
 12 06 2015  15 21  -14.4476 18001.4 -13529.4 -36.9274 22518.8
 12 06 2015  15 22  -14.4477 18001.5 -13529.0 -36.9266 22518.6
 12 06 2015  15 23  -14.4471 18001.9 -13529.4 -36.9268 22519.1
 12 06 2015  15 24  -14.4471 18002.5 -13529.2 -36.9256 22519.5
 12 06 2015  15 25  -14.4427 18008.7 -13530.8 -36.9192 22525.5
 12 06 2015  15 26  -14.4432 18008.3 -13530.2 -36.9186 22524.8
 12 06 2015  15 27  -14.4397 18010.1 -13530.3 -36.9159 22526.3
 12 06 2015  15 28  -14.4373 18010.7 -13530.0 -36.9145 22526.5
 12 06 2015  15 29  -14.4364 18009.8 -13529.7 -36.9152 22525.7
 12 06 2015  15 30  -14.4348 18010.1 -13529.5 -36.9145 22525.8
 12 06 2015  15 31  -14.4327 18011.9 -13529.8 -36.9123 22527.5
 12 06 2015  15 32  -14.4319 18011.9 -13529.5 -36.9118 22527.2
 12 06 2015  15 33  -14.4301 18012.7 -13529.5 -36.9106 22527.9
 12 06 2015  15 34  -14.4299 18012.2 -13529.2 -36.9105 22527.3
 12 06 2015  15 35  -14.4304 18009.2 -13528.2 -36.9131 22524.3
 12 06 2015  15 36  -14.4293 18008.4 -13528.1 -36.9142 22523.6
 12 06 2015  15 37  -14.4300 18007.5 -13528.1 -36.9155 22522.8
 12 06 2015  15 38  -14.4311 18007.4 -13528.4 -36.9164 22523.0
 12 06 2015  15 39  -14.4321 18006.5 -13527.9 -36.9167 22522.0
 12 06 2015  15 40  -14.4314 18006.3 -13527.9 -36.9171 22521.8
 12 06 2015  15 41  -14.4319 18005.6 -13527.9 -36.9181 22521.2
 12 06 2015  15 42  -14.4331 18004.6 -13528.2 -36.9201 22520.6
 12 06 2015  15 43  -14.4333 18004.6 -13528.2 -36.9201 22520.6
 12 06 2015  15 44  -14.4338 18003.7 -13528.6 -36.9224 22520.1
 12 06 2015  15 45  -14.4345 18003.0 -13527.7 -36.9216 22519.1
 12 06 2015  15 46  -14.4357 18003.1 -13527.4 -36.9207 22518.9
 12 06 2015  15 47  -14.4359 18003.2 -13528.4 -36.9229 22519.6
 12 06 2015  15 48  -14.4351 18003.5 -13528.9 -36.9233 22520.2
 12 06 2015  15 49  -14.4348 18003.6 -13528.9 -36.9233 22520.2
 12 06 2015  15 50  -14.4350 18003.6 -13528.5 -36.9224 22520.0
 12 06 2015  15 51  -14.4357 18002.8 -13528.3 -36.9231 22519.2
 12 06 2015  15 52  -14.4358 18002.6 -13528.4 -36.9236 22519.1
 12 06 2015  15 53  -14.4355 18002.5 -13529.0 -36.9250 22519.4
 12 06 2015  15 54  -14.4346 18003.7 -13528.9 -36.9230 22520.3
 12 06 2015  15 55  -14.4331 18004.4 -13530.0 -36.9241 22521.6
 12 06 2015  15 56  -14.4316 18004.5 -13529.4 -36.9227 22521.3
 12 06 2015  15 57  -14.4292 18004.6 -13529.7 -36.9233 22521.5
 12 06 2015  15 58  -14.4275 18004.5 -13529.9 -36.9238 22521.5
 12 06 2015  15 59  -14.4266 18004.2 -13530.2 -36.9248 22521.4
 12 06 2015  16 00  -14.4260 18004.3 -13530.3 -36.9248 22521.6
 12 06 2015  16 01  -14.4248 18004.3 -13530.7 -36.9258 22521.8
 12 06 2015  16 02  -14.4229 18005.7 -13530.8 -36.9237 22523.0
 12 06 2015  16 03  -14.4225 18005.3 -13530.6 -36.9240 22522.6
 12 06 2015  16 04  -14.4207 18005.9 -13530.7 -36.9233 22523.2
 12 06 2015  16 05  -14.4190 18006.1 -13530.6 -36.9227 22523.2
 12 06 2015  16 06  -14.4176 18006.4 -13531.4 -36.9238 22524.0
 12 06 2015  16 07  -14.4171 18007.1 -13531.1 -36.9224 22524.4
 12 06 2015  16 08  -14.4176 18006.3 -13531.0 -36.9233 22523.6
 12 06 2015  16 09  -14.4158 18006.8 -13531.4 -36.9234 22524.3
 12 06 2015  16 10  -14.4159 18007.3 -13532.1 -36.9239 22525.1
 12 06 2015  16 11  -14.4175 18007.2 -13531.0 -36.9218 22524.4
 12 06 2015  16 12  -14.4168 18008.4 -13531.4 -36.9209 22525.6
 12 06 2015  16 13  -14.4168 18009.0 -13531.3 -36.9197 22526.0
 12 06 2015  16 14  -14.4160 18009.0 -13530.9 -36.9190 22525.8
 12 06 2015  16 15  -14.4156 18010.0 -13531.4 -36.9184 22526.8
 12 06 2015  16 16  -14.4162 18010.3 -13531.0 -36.9171 22526.9
 12 06 2015  16 17  -14.4181 18009.1 -13530.8 -36.9185 22525.8
 12 06 2015  16 18  -14.4185 18008.0 -13530.5 -36.9196 22524.7
 12 06 2015  16 19  -14.4182 18008.3 -13530.5 -36.9192 22524.9
 12 06 2015  16 20  -14.4201 18007.6 -13530.5 -36.9203 22524.4
 12 06 2015  16 21  -14.4212 18006.9 -13530.6 -36.9214 22523.9
 12 06 2015  16 22  -14.4228 18006.4 -13530.8 -36.9228 22523.6
 12 06 2015  16 23  -14.4241 18005.0 -13530.5 -36.9244 22522.3
 12 06 2015  16 24  -14.4249 18004.7 -13530.6 -36.9250 22522.1
 12 06 2015  16 25  -14.4260 18004.1 -13531.0 -36.9267 22521.9
 12 06 2015  16 26  -14.4271 18004.0 -13531.1 -36.9269 22521.9
 12 06 2015  16 27  -14.4284 18003.6 -13530.7 -36.9268 22521.3
 12 06 2015  16 28  -14.4271 18004.1 -13531.2 -36.9271 22522.0
 12 06 2015  16 29  -14.4286 18003.5 -13531.2 -36.9279 22521.5
 12 06 2015  16 30  -14.4293 18002.7 -13531.1 -36.9289 22520.8
 12 06 2015  16 31  -14.4288 18002.3 -13531.2 -36.9297 22520.5
 12 06 2015  16 32  -14.4278 18002.2 -13531.0 -36.9296 22520.4
 12 06 2015  16 33  -14.4302 18000.6 -13530.6 -36.9312 22518.9
 12 06 2015  16 34  -14.4317 18000.0 -13531.7 -36.9343 22519.0
 12 06 2015  16 35  -14.4304 18000.6 -13531.3 -36.9327 22519.3
 12 06 2015  16 36  -14.4287 18001.0 -13532.1 -36.9336 22520.1
 12 06 2015  16 37  -14.4286 18001.0 -13531.8 -36.9331 22519.9
 12 06 2015  16 38  -14.4299 18000.7 -13531.5 -36.9329 22519.5
 12 06 2015  16 39  -14.4318 18000.3 -13531.3 -36.9331 22519.0
 12 06 2015  16 40  -14.4326 18000.2 -13531.5 -36.9337 22519.1
 12 06 2015  16 41  -14.4336 17999.8 -13531.6 -36.9344 22518.8
 12 06 2015  16 42  -14.4361 17998.6 -13531.2 -36.9356 22517.6
 12 06 2015  16 43  -14.4377 17998.0 -13531.4 -36.9368 22517.2
 12 06 2015  16 44  -14.4394 17997.7 -13531.2 -36.9369 22516.8
 12 06 2015  16 45  -14.4415 17996.6 -13530.8 -36.9377 22515.8
 12 06 2015  16 46  -14.4423 17996.2 -13531.6 -36.9399 22515.9
 12 06 2015  16 47  -14.4434 17996.2 -13531.2 -36.9390 22515.7
 12 06 2015  16 48  -14.4448 17996.4 -13531.9 -36.9402 22516.3
 12 06 2015  16 49  -14.4452 17996.5 -13531.9 -36.9401 22516.3
 12 06 2015  16 50  -14.4439 17997.0 -13532.4 -36.9404 22517.1
 12 06 2015  16 51  -14.4432 17997.7 -13532.5 -36.9393 22517.7
 12 06 2015  16 52  -14.4441 17998.2 -13531.4 -36.9365 22517.4
 12 06 2015  16 53  -14.4439 17998.3 -13532.1 -36.9377 22517.9
 12 06 2015  16 54  -14.4415 17999.3 -13532.7 -36.9375 22519.1
 12 06 2015  16 55  -14.4396 18000.3 -13532.3 -36.9351 22519.6
 12 06 2015  16 56  -14.4402 18000.5 -13531.6 -36.9334 22519.4
 12 06 2015  16 57  -14.4418 18000.1 -13532.1 -36.9349 22519.3
 12 06 2015  16 58  -14.4419 18000.2 -13531.3 -36.9332 22519.0
 12 06 2015  16 59  -14.4406 18000.8 -13531.4 -36.9325 22519.5
 12 06 2015  17 00  -14.4394 18001.3 -13532.3 -36.9337 22520.4
 12 06 2015  17 01  -14.4388 18001.5 -13532.8 -36.9341 22520.9
 12 06 2015  17 02  -14.4393 18001.4 -13532.1 -36.9330 22520.4
 12 06 2015  17 03  -14.4396 18001.3 -13532.1 -36.9332 22520.3
 12 06 2015  17 04  -14.4405 18000.5 -13531.5 -36.9332 22519.4
 12 06 2015  17 05  -14.4405 18000.5 -13531.7 -36.9337 22519.4
 12 06 2015  17 06  -14.4420 18000.1 -13531.6 -36.9341 22519.1
 12 06 2015  17 07  -14.4433 17999.2 -13531.5 -36.9353 22518.3
 12 06 2015  17 08  -14.4426 17999.8 -13531.7 -36.9346 22518.9
 12 06 2015  17 09  -14.4432 17999.7 -13532.0 -36.9353 22519.0
 12 06 2015  17 10  -14.4442 17998.2 -13532.1 -36.9379 22517.8
 12 06 2015  17 11  -14.4449 17997.4 -13531.9 -36.9387 22517.1
 12 06 2015  17 12  -14.4460 17997.6 -13532.6 -36.9399 22517.6
 12 06 2015  17 13  -14.4467 17997.5 -13532.3 -36.9394 22517.4
 12 06 2015  17 14  -14.4460 17997.9 -13532.2 -36.9386 22517.7
 12 06 2015  17 15  -14.4463 17997.3 -13532.6 -36.9403 22517.5
 12 06 2015  17 16  -14.4468 17996.9 -13532.4 -36.9405 22516.9
 12 06 2015  17 17  -14.4459 17997.2 -13532.9 -36.9411 22517.6
 12 06 2015  17 18  -14.4458 17997.6 -13532.8 -36.9403 22517.8
 12 06 2015  17 19  -14.4460 17997.5 -13533.0 -36.9407 22517.8
 12 06 2015  17 20  -14.4469 17996.9 -13532.7 -36.9412 22517.2
 12 06 2015  17 21  -14.4461 17997.5 -13533.1 -36.9410 22517.9
 12 06 2015  17 22  -14.4440 17999.0 -13533.3 -36.9393 22519.2
 12 06 2015  17 23  -14.4431 18000.0 -13533.9 -36.9388 22520.3
 12 06 2015  17 24  -14.4453 17999.0 -13533.4 -36.9393 22519.2
 12 06 2015  17 25  -14.4468 17998.2 -13532.8 -36.9394 22518.3
 12 06 2015  17 26  -14.4446 17998.6 -13533.7 -36.9404 22519.1
 12 06 2015  17 27  -14.4420 17999.0 -13534.1 -36.9406 22519.7
 12 06 2015  17 28  -14.4410 17998.7 -13533.4 -36.9399 22519.0
 12 06 2015  17 29  -14.4405 17998.5 -13532.9 -36.9390 22518.5
 12 06 2015  17 30  -14.4420 17998.5 -13533.9 -36.9411 22519.2
 12 06 2015  17 31  -14.4425 17997.9 -13533.8 -36.9419 22518.6
 12 06 2015  17 32  -14.4454 17995.4 -13533.4 -36.9448 22516.3
 12 06 2015  17 33  -14.4466 17993.7 -13532.3 -36.9451 22514.4
 12 06 2015  17 34  -14.4482 17991.2 -13532.9 -36.9503 22512.8
 12 06 2015  17 35  -14.4485 17989.9 -13532.2 -36.9507 22511.3
 12 06 2015  17 36  -14.4474 17989.1 -13533.0 -36.9536 22511.2
 12 06 2015  17 37  -14.4465 17989.3 -13533.7 -36.9549 22511.7
 12 06 2015  17 38  -14.4462 17991.0 -13534.4 -36.9536 22513.5
 12 06 2015  17 39  -14.4489 17991.6 -13534.2 -36.9523 22513.9
 12 06 2015  17 40  -14.4498 17991.2 -13534.4 -36.9534 22513.6
 12 06 2015  17 41  -14.4497 17989.8 -13534.3 -36.9553 22512.5
 12 06 2015  17 42  -14.4488 17989.2 -13534.1 -36.9559 22511.8
 12 06 2015  17 43  -14.4477 17989.1 -13534.4 -36.9565 22512.0
 12 06 2015  17 44  -14.4473 17989.9 -13535.0 -36.9566 22512.9
 12 06 2015  17 45  -14.4485 17989.5 -13535.0 -36.9571 22512.7
 12 06 2015  17 46  -14.4486 17990.0 -13535.2 -36.9568 22513.1
 12 06 2015  17 47  -14.4478 17991.1 -13535.0 -36.9547 22513.9
 12 06 2015  17 48  -14.4469 17991.7 -13535.3 -36.9543 22514.6
 12 06 2015  17 49  -14.4449 17992.6 -13535.8 -36.9540 22515.6
 12 06 2015  17 50  -14.4443 17993.1 -13535.0 -36.9515 22515.5
 12 06 2015  17 51  -14.4441 17992.6 -13535.0 -36.9523 22515.1
 12 06 2015  17 52  -14.4430 17993.2 -13535.7 -36.9529 22516.0
 12 06 2015  17 53  -14.4420 17994.1 -13535.6 -36.9512 22516.7
 12 06 2015  17 54  -14.4408 17995.2 -13535.7 -36.9498 22517.6
 12 06 2015  17 55  -14.4404 17995.7 -13535.9 -36.9494 22518.1
 12 06 2015  17 56  -14.4400 17995.9 -13536.0 -36.9493 22518.3
 12 06 2015  17 57  -14.4406 17995.2 -13534.9 -36.9482 22517.1
 12 06 2015  17 58  -14.4422 17993.5 -13534.7 -36.9504 22515.7
 12 06 2015  17 59  -14.4438 17991.1 -13534.3 -36.9532 22513.5
 12 06 2015  18 00  -14.4440 17989.6 -13533.7 -36.9542 22511.9
 12 06 2015  18 01  -14.4432 17990.1 -13534.1 -36.9544 22512.6
 12 06 2015  18 02  -14.4432 17991.1 -13535.3 -36.9552 22514.1
 12 06 2015  18 03  -14.4437 17991.6 -13535.2 -36.9544 22514.5
 12 06 2015  18 04  -14.4438 17992.0 -13535.8 -36.9549 22515.1
 12 06 2015  18 05  -14.4444 17991.8 -13534.4 -36.9523 22514.1
 12 06 2015  18 06  -14.4450 17991.5 -13535.2 -36.9545 22514.3
 12 06 2015  18 07  -14.4461 17990.7 -13534.8 -36.9548 22513.5
 12 06 2015  18 08  -14.4466 17990.8 -13534.8 -36.9547 22513.5
 12 06 2015  18 09  -14.4469 17991.0 -13534.7 -36.9543 22513.6
 12 06 2015  18 10  -14.4466 17992.2 -13534.8 -36.9525 22514.7
 12 06 2015  18 11  -14.4468 17993.2 -13535.3 -36.9521 22515.7
 12 06 2015  18 12  -14.4478 17993.4 -13534.7 -36.9506 22515.6
 12 06 2015  18 13  -14.4479 17993.8 -13533.7 -36.9480 22515.3
 12 06 2015  18 14  -14.4477 17994.3 -13535.2 -36.9501 22516.5
 12 06 2015  18 15  -14.4483 17994.4 -13533.9 -36.9473 22515.9
 12 06 2015  18 16  -14.4481 17995.0 -13534.3 -36.9472 22516.6
 12 06 2015  18 17  -14.4490 17995.0 -13533.6 -36.9459 22516.2
 12 06 2015  18 18  -14.4490 17995.1 -13534.0 -36.9465 22516.5
 12 06 2015  18 19  -14.4492 17995.0 -13534.6 -36.9479 22516.8
 12 06 2015  18 20  -14.4499 17994.8 -13534.1 -36.9472 22516.3
 12 06 2015  18 21  -14.4501 17994.8 -13533.6 -36.9460 22516.0
 12 06 2015  18 22  -14.4502 17995.1 -13533.7 -36.9459 22516.3
 12 06 2015  18 23  -14.4504 17995.3 -13533.8 -36.9459 22516.5
 12 06 2015  18 24  -14.4508 17995.3 -13534.2 -36.9466 22516.7
 12 06 2015  18 25  -14.4515 17995.0 -13533.4 -36.9455 22516.1
 12 06 2015  18 26  -14.4523 17994.1 -13534.3 -36.9487 22515.9
 12 06 2015  18 27  -14.4531 17993.0 -13533.9 -36.9496 22514.8
 12 06 2015  18 28  -14.4532 17992.6 -13534.0 -36.9502 22514.5
 12 06 2015  18 29  -14.4535 17993.0 -13533.6 -36.9488 22514.5
 12 06 2015  18 30  -14.4533 17993.6 -13533.8 -36.9484 22515.2
 12 06 2015  18 31  -14.4533 17994.2 -13534.9 -36.9497 22516.3
 12 06 2015  18 32  -14.4536 17994.4 -13534.3 -36.9482 22516.1
 12 06 2015  18 33  -14.4535 17994.3 -13534.3 -36.9484 22516.1
 12 06 2015  18 34  -14.4538 17994.1 -13534.3 -36.9486 22515.9
 12 06 2015  18 35  -14.4537 17993.8 -13534.8 -36.9501 22516.0
 12 06 2015  18 36  -14.4530 17993.8 -13534.7 -36.9499 22515.9
 12 06 2015  18 37  -14.4530 17993.5 -13534.6 -36.9502 22515.6
 12 06 2015  18 38  -14.4530 17993.6 -13534.8 -36.9505 22515.8
 12 06 2015  18 39  -14.4527 17993.6 -13535.4 -36.9517 22516.1
 12 06 2015  18 40  -14.4526 17993.1 -13535.0 -36.9516 22515.5
 12 06 2015  18 41  -14.4517 17993.1 -13535.2 -36.9521 22515.6
 12 06 2015  18 42  -14.4520 17992.5 -13535.2 -36.9529 22515.1
 12 06 2015  18 43  -14.4525 17991.6 -13535.2 -36.9543 22514.4
 12 06 2015  18 44  -14.4530 17990.9 -13535.3 -36.9556 22513.9
 12 06 2015  18 45  -14.4529 17990.3 -13535.4 -36.9566 22513.5
 12 06 2015  18 46  -14.4525 17989.9 -13536.2 -36.9589 22513.7
 12 06 2015  18 47  -14.4518 17990.0 -13536.2 -36.9589 22513.8
 12 06 2015  18 48  -14.4514 17989.7 -13536.7 -36.9602 22513.8
 12 06 2015  18 49  -14.4515 17989.6 -13536.8 -36.9606 22513.8
 12 06 2015  18 50  -14.4510 17990.1 -13536.6 -36.9596 22514.1
 12 06 2015  18 51  -14.4509 17990.3 -13537.1 -36.9602 22514.6
 12 06 2015  18 52  -14.4512 17989.8 -13537.4 -36.9615 22514.2
 12 06 2015  18 53  -14.4516 17988.9 -13537.2 -36.9625 22513.4
 12 06 2015  18 54  -14.4515 17988.5 -13537.2 -36.9631 22513.1
 12 06 2015  18 55  -14.4509 17988.4 -13537.2 -36.9631 22513.1
 12 06 2015  18 56  -14.4506 17988.7 -13537.4 -36.9631 22513.5
 12 06 2015  18 57  -14.4494 17989.3 -13537.9 -36.9633 22514.2
 12 06 2015  18 58  -14.4492 17988.9 -13538.0 -36.9642 22514.0
 12 06 2015  18 59  -14.4489 17988.9 -13538.1 -36.9644 22514.0
 12 06 2015  19 00  -14.4482 17989.6 -13538.2 -36.9636 22514.6
 12 06 2015  19 01  -14.4477 17989.6 -13538.4 -36.9639 22514.7
 12 06 2015  19 02  -14.4472 17989.5 -13538.5 -36.9641 22514.7
 12 06 2015  19 03  -14.4456 17991.0 -13538.9 -36.9628 22516.2
 12 06 2015  19 04  -14.4456 17992.1 -13539.2 -36.9616 22517.2
 12 06 2015  19 05  -14.4457 17992.2 -13538.8 -36.9607 22517.1
 12 06 2015  19 06  -14.4446 17992.3 -13539.0 -36.9610 22517.3
 12 06 2015  19 07  -14.4443 17992.8 -13538.9 -36.9601 22517.6
 12 06 2015  19 08  -14.4446 17992.9 -13539.5 -36.9609 22518.0
 12 06 2015  19 09  -14.4443 17993.0 -13538.8 -36.9595 22517.7
 12 06 2015  19 10  -14.4444 17992.9 -13538.9 -36.9598 22517.7
 12 06 2015  19 11  -14.4445 17993.0 -13539.4 -36.9607 22518.1
 12 06 2015  19 12  -14.4444 17993.4 -13539.6 -36.9606 22518.5
 12 06 2015  19 13  -14.4441 17993.9 -13539.0 -36.9584 22518.5
 12 06 2015  19 14  -14.4447 17993.7 -13539.0 -36.9588 22518.4
 12 06 2015  19 15  -14.4458 17992.8 -13539.0 -36.9601 22517.7
 12 06 2015  19 16  -14.4460 17992.4 -13538.7 -36.9603 22517.1
 12 06 2015  19 17  -14.4463 17992.3 -13538.9 -36.9608 22517.2
 12 06 2015  19 18  -14.4462 17992.5 -13540.0 -36.9626 22518.1
 12 06 2015  19 19  -14.4470 17992.5 -13540.0 -36.9628 22518.0
 12 06 2015  19 20  -14.4478 17992.3 -13539.5 -36.9620 22517.6
 12 06 2015  19 21  -14.4482 17992.1 -13539.8 -36.9628 22517.6
 12 06 2015  19 22  -14.4481 17992.6 -13540.1 -36.9627 22518.1
 12 06 2015  19 23  -14.4482 17993.3 -13540.3 -36.9621 22518.9
 12 06 2015  19 24  -14.4486 17993.6 -13541.0 -36.9631 22519.5
 12 06 2015  19 25  -14.4490 17993.7 -13540.8 -36.9625 22519.5
 12 06 2015  19 26  -14.4493 17993.5 -13541.4 -36.9639 22519.7
 12 06 2015  19 27  -14.4501 17993.2 -13540.4 -36.9625 22518.8
 12 06 2015  19 28  -14.4504 17993.0 -13540.3 -36.9625 22518.7
 12 06 2015  19 29  -14.4507 17993.2 -13540.9 -36.9636 22519.1
 12 06 2015  19 30  -14.4510 17993.6 -13540.7 -36.9624 22519.4
 12 06 2015  19 31  -14.4517 17993.4 -13540.9 -36.9632 22519.3
 12 06 2015  19 32  -14.4522 17993.1 -13541.6 -36.9650 22519.4
 12 06 2015  19 33  -14.4528 17992.8 -13541.1 -36.9645 22518.9
 12 06 2015  19 34  -14.4535 17992.4 -13541.6 -36.9662 22519.0
 12 06 2015  19 35  -14.4556 17989.8 -13541.2 -36.9692 22516.6
 12 06 2015  19 36  -14.4578 17987.1 -13541.0 -36.9730 22514.3
 12 06 2015  19 37  -14.4588 17986.7 -13540.7 -36.9730 22513.8
 12 06 2015  19 38  -14.4593 17986.6 -13541.1 -36.9739 22514.0
 12 06 2015  19 39  -14.4597 17986.5 -13541.9 -36.9758 22514.4
 12 06 2015  19 40  -14.4594 17987.0 -13542.4 -36.9761 22515.1
 12 06 2015  19 41  -14.4585 17988.3 -13542.9 -36.9750 22516.4
 12 06 2015  19 42  -14.4584 17988.7 -13543.0 -36.9745 22516.8
 12 06 2015  19 43  -14.4594 17987.7 -13543.0 -36.9761 22516.0
 12 06 2015  19 44  -14.4623 17986.3 -13542.6 -36.9774 22514.6
 12 06 2015  19 45  -14.4631 17985.1 -13542.6 -36.9794 22513.7
 12 06 2015  19 46  -14.4633 17984.4 -13542.7 -36.9806 22513.2
 12 06 2015  19 47  -14.4630 17984.1 -13543.0 -36.9816 22513.1
 12 06 2015  19 48  -14.4622 17984.4 -13543.3 -36.9818 22513.6
 12 06 2015  19 49  -14.4621 17985.0 -13543.3 -36.9809 22514.0
 12 06 2015  19 50  -14.4619 17985.6 -13544.2 -36.9816 22515.1
 12 06 2015  19 51  -14.4619 17986.5 -13544.1 -36.9801 22515.7
 12 06 2015  19 52  -14.4618 17987.1 -13544.3 -36.9798 22516.3
 12 06 2015  19 53  -14.4625 17986.7 -13543.5 -36.9788 22515.5
 12 06 2015  19 54  -14.4632 17985.5 -13543.3 -36.9802 22514.5
 12 06 2015  19 55  -14.4633 17985.0 -13543.2 -36.9805 22514.0
 12 06 2015  19 56  -14.4637 17984.6 -13543.7 -36.9823 22514.0
 12 06 2015  19 57  -14.4644 17984.2 -13544.5 -36.9846 22514.1
 12 06 2015  19 58  -14.4651 17984.6 -13544.7 -36.9844 22514.6
 12 06 2015  19 59  -14.4654 17985.3 -13544.5 -36.9828 22515.0
 12 06 2015  20 00  -14.4652 17986.2 -13544.7 -36.9820 22515.8
 12 06 2015  20 01  -14.4657 17987.0 -13544.7 -36.9806 22516.5
 12 06 2015  20 02  -14.4661 17987.7 -13545.0 -36.9803 22517.2
 12 06 2015  20 03  -14.4667 17987.6 -13544.4 -36.9791 22516.7
 12 06 2015  20 04  -14.4676 17987.0 -13544.6 -36.9803 22516.4
 12 06 2015  20 05  -14.4681 17987.0 -13544.2 -36.9795 22516.2
 12 06 2015  20 06  -14.4690 17986.6 -13544.1 -36.9801 22515.8
 12 06 2015  20 07  -14.4692 17986.7 -13544.1 -36.9798 22515.8
 12 06 2015  20 08  -14.4697 17986.6 -13544.4 -36.9806 22516.0
 12 06 2015  20 09  -14.4706 17985.9 -13544.1 -36.9812 22515.2
 12 06 2015  20 10  -14.4715 17985.6 -13544.0 -36.9814 22514.9
 12 06 2015  20 11  -14.4719 17985.3 -13543.3 -36.9805 22514.3
 12 06 2015  20 12  -14.4728 17984.6 -13543.9 -36.9827 22514.1
 12 06 2015  20 13  -14.4728 17985.0 -13544.7 -36.9838 22514.9
 12 06 2015  20 14  -14.4735 17985.2 -13543.9 -36.9818 22514.5
 12 06 2015  20 15  -14.4737 17985.0 -13544.3 -36.9828 22514.6
 12 06 2015  20 16  -14.4735 17985.6 -13544.4 -36.9821 22515.1
 12 06 2015  20 17  -14.4736 17986.6 -13544.5 -36.9809 22516.0
 12 06 2015  20 18  -14.4740 17987.2 -13544.5 -36.9800 22516.5
 12 06 2015  20 19  -14.4747 17987.5 -13544.5 -36.9794 22516.7
 12 06 2015  20 20  -14.4747 17987.4 -13544.0 -36.9788 22516.4
 12 06 2015  20 21  -14.4750 17986.7 -13543.9 -36.9795 22515.7
 12 06 2015  20 22  -14.4759 17986.4 -13543.8 -36.9797 22515.4
 12 06 2015  20 23  -14.4764 17986.3 -13543.7 -36.9796 22515.3
 12 06 2015  20 24  -14.4778 17985.3 -13543.6 -36.9810 22514.4
 12 06 2015  20 25  -14.4781 17984.6 -13543.4 -36.9817 22513.8
 12 06 2015  20 26  -14.4782 17984.3 -13543.5 -36.9822 22513.6
 12 06 2015  20 27  -14.4784 17984.9 -13543.6 -36.9817 22514.1
 12 06 2015  20 28  -14.4795 17984.7 -13543.7 -36.9821 22514.0
 12 06 2015  20 29  -14.4793 17984.5 -13543.5 -36.9821 22513.7
 12 06 2015  20 30  -14.4791 17984.7 -13543.4 -36.9815 22513.9
 12 06 2015  20 31  -14.4799 17984.3 -13543.5 -36.9825 22513.6
 12 06 2015  20 32  -14.4801 17983.6 -13543.3 -36.9830 22512.9
 12 06 2015  20 33  -14.4798 17983.6 -13543.7 -36.9837 22513.1
 12 06 2015  20 34  -14.4794 17984.0 -13543.6 -36.9830 22513.4
 12 06 2015  20 35  -14.4791 17984.5 -13543.3 -36.9816 22513.7
 12 06 2015  20 36  -14.4793 17985.0 -13543.3 -36.9808 22514.0
 12 06 2015  20 37  -14.4796 17985.2 -13543.5 -36.9808 22514.3
 12 06 2015  20 38  -14.4802 17985.4 -13543.2 -36.9801 22514.3
 12 06 2015  20 39  -14.4802 17985.6 -13543.4 -36.9801 22514.5
 12 06 2015  20 40  -14.4807 17985.6 -13543.0 -36.9793 22514.3
 12 06 2015  20 41  -14.4814 17985.5 -13543.1 -36.9798 22514.3
 12 06 2015  20 42  -14.4825 17985.1 -13542.8 -36.9797 22513.8
 12 06 2015  20 43  -14.4835 17984.7 -13542.5 -36.9797 22513.3
 12 06 2015  20 44  -14.4844 17984.5 -13542.1 -36.9792 22512.9
 12 06 2015  20 45  -14.4846 17984.3 -13542.8 -36.9810 22513.1
 12 06 2015  20 46  -14.4852 17983.7 -13542.3 -36.9809 22512.4
 12 06 2015  20 47  -14.4856 17982.4 -13542.6 -36.9834 22511.5
 12 06 2015  20 48  -14.4867 17980.5 -13542.0 -36.9851 22509.6
 12 06 2015  20 49  -14.4874 17979.3 -13541.9 -36.9868 22508.7
 12 06 2015  20 50  -14.4878 17978.5 -13542.0 -36.9882 22508.1
 12 06 2015  20 51  -14.4877 17978.7 -13542.2 -36.9883 22508.3
 12 06 2015  20 52  -14.4875 17978.6 -13542.2 -36.9883 22508.2
 12 06 2015  20 53  -14.4878 17978.4 -13542.5 -36.9893 22508.2
 12 06 2015  20 54  -14.4877 17978.8 -13542.4 -36.9886 22508.6
 12 06 2015  20 55  -14.4876 17979.6 -13542.5 -36.9874 22509.2
 12 06 2015  20 56  -14.4878 17979.9 -13542.9 -36.9878 22509.7
 12 06 2015  20 57  -14.4881 17980.2 -13543.2 -36.9881 22510.1
 12 06 2015  20 58  -14.4888 17979.6 -13542.3 -36.9871 22509.2
 12 06 2015  20 59  -14.4887 17979.7 -13543.0 -36.9885 22509.6
 12 06 2015  21 00  -14.4890 17979.5 -13542.5 -36.9877 22509.1
 12 06 2015  21 01  -14.4891 17979.2 -13542.6 -36.9884 22509.0
 12 06 2015  21 02  -14.4893 17978.6 -13542.3 -36.9886 22508.3
 12 06 2015  21 03  -14.4895 17978.1 -13542.0 -36.9889 22507.7
 12 06 2015  21 04  -14.4895 17977.8 -13542.0 -36.9893 22507.5
 12 06 2015  21 05  -14.4896 17977.4 -13542.1 -36.9902 22507.2
 12 06 2015  21 06  -14.4900 17977.1 -13542.1 -36.9905 22507.0
 12 06 2015  21 07  -14.4903 17976.8 -13542.3 -36.9914 22506.8
 12 06 2015  21 08  -14.4905 17976.5 -13542.2 -36.9917 22506.6
 12 06 2015  21 09  -14.4905 17976.3 -13542.3 -36.9921 22506.4
 12 06 2015  21 10  -14.4906 17976.2 -13542.5 -36.9926 22506.5
 12 06 2015  21 11  -14.4900 17976.4 -13542.7 -36.9928 22506.8
 12 06 2015  21 12  -14.4897 17976.5 -13542.4 -36.9921 22506.7
 12 06 2015  21 13  -14.4889 17976.5 -13542.9 -36.9932 22507.0
 12 06 2015  21 14  -14.4883 17976.0 -13542.7 -36.9934 22506.5
 12 06 2015  21 15  -14.4879 17975.6 -13542.3 -36.9933 22505.9
 12 06 2015  21 16  -14.4878 17975.2 -13542.5 -36.9943 22505.7
 12 06 2015  21 17  -14.4875 17975.0 -13542.4 -36.9944 22505.5
 12 06 2015  21 18  -14.4870 17974.9 -13542.6 -36.9949 22505.5
 12 06 2015  21 19  -14.4866 17974.5 -13542.5 -36.9954 22505.2
 12 06 2015  21 20  -14.4866 17974.3 -13542.5 -36.9957 22505.0
 12 06 2015  21 21  -14.4871 17974.0 -13542.7 -36.9966 22504.8
 12 06 2015  21 22  -14.4876 17974.0 -13542.6 -36.9964 22504.8
 12 06 2015  21 23  -14.4877 17973.9 -13542.8 -36.9968 22504.9
 12 06 2015  21 24  -14.4875 17974.0 -13542.9 -36.9968 22505.0
 12 06 2015  21 25  -14.4872 17974.4 -13542.9 -36.9962 22505.3
 12 06 2015  21 26  -14.4869 17974.9 -13543.1 -36.9958 22505.9
 12 06 2015  21 27  -14.4872 17975.2 -13542.9 -36.9951 22506.0
 12 06 2015  21 28  -14.4879 17975.4 -13542.9 -36.9948 22506.1
 12 06 2015  21 29  -14.4883 17975.2 -13542.9 -36.9951 22506.0
 12 06 2015  21 30  -14.4889 17975.0 -13542.7 -36.9950 22505.7
 12 06 2015  21 31  -14.4891 17974.8 -13543.3 -36.9965 22505.8
 12 06 2015  21 32  -14.4896 17974.7 -13543.2 -36.9966 22505.7
 12 06 2015  21 33  -14.4905 17974.6 -13543.2 -36.9966 22505.6
 12 06 2015  21 34  -14.4906 17974.6 -13543.0 -36.9962 22505.6
 12 06 2015  21 35  -14.4902 17974.6 -13543.3 -36.9968 22505.7
 12 06 2015  21 36  -14.4903 17974.4 -13543.2 -36.9967 22505.5
 12 06 2015  21 37  -14.4898 17974.1 -13542.8 -36.9964 22505.0
 12 06 2015  21 38  -14.4899 17974.1 -13542.6 -36.9962 22504.9
 12 06 2015  21 39  -14.4895 17973.9 -13542.9 -36.9971 22504.9
 12 06 2015  21 40  -14.4893 17974.1 -13543.7 -36.9984 22505.6
 12 06 2015  21 41  -14.4885 17974.8 -13542.9 -36.9958 22505.7
 12 06 2015  21 42  -14.4881 17975.4 -13543.3 -36.9956 22506.3
 12 06 2015  21 43  -14.4880 17975.2 -13543.3 -36.9958 22506.2
 12 06 2015  21 44  -14.4883 17974.7 -13542.4 -36.9949 22505.3
 12 06 2015  21 45  -14.4893 17974.2 -13542.0 -36.9947 22504.6
 12 06 2015  21 46  -14.4896 17973.8 -13542.7 -36.9968 22504.7
 12 06 2015  21 47  -14.4902 17973.7 -13542.5 -36.9965 22504.5
 12 06 2015  21 48  -14.4898 17974.2 -13543.3 -36.9974 22505.4
 12 06 2015  21 49  -14.4880 17975.2 -13543.4 -36.9961 22506.2
 12 06 2015  21 50  -14.4872 17975.6 -13543.4 -36.9955 22506.6
 12 06 2015  21 51  -14.4870 17975.8 -13543.3 -36.9951 22506.7
 12 06 2015  21 52  -14.4871 17975.6 -13543.1 -36.9950 22506.4
 12 06 2015  21 53  -14.4871 17975.4 -13543.2 -36.9955 22506.3
 12 06 2015  21 54  -14.4871 17975.2 -13543.1 -36.9954 22506.1
 12 06 2015  21 55  -14.4874 17974.8 -13543.1 -36.9960 22505.7
 12 06 2015  21 56  -14.4876 17974.3 -13543.3 -36.9972 22505.5
 12 06 2015  21 57  -14.4880 17973.8 -13543.2 -36.9978 22505.0
 12 06 2015  21 58  -14.4879 17973.5 -13542.6 -36.9971 22504.4
 12 06 2015  21 59  -14.4871 17973.6 -13543.1 -36.9979 22504.8
 12 06 2015  22 00  -14.4867 17973.7 -13542.8 -36.9972 22504.7
 12 06 2015  22 01  -14.4858 17974.0 -13543.6 -36.9983 22505.4
 12 06 2015  22 02  -14.4855 17974.0 -13543.2 -36.9976 22505.1
 12 06 2015  22 03  -14.4854 17973.6 -13542.9 -36.9975 22504.7
 12 06 2015  22 04  -14.4853 17973.7 -13543.3 -36.9981 22505.0
 12 06 2015  22 05  -14.4855 17973.9 -13543.3 -36.9978 22505.1
 12 06 2015  22 06  -14.4854 17974.2 -13543.5 -36.9977 22505.5
 12 06 2015  22 07  -14.4850 17974.6 -13543.3 -36.9968 22505.7
 12 06 2015  22 08  -14.4847 17975.0 -13543.8 -36.9972 22506.3
 12 06 2015  22 09  -14.4842 17975.3 -13543.4 -36.9961 22506.3
 12 06 2015  22 10  -14.4838 17975.1 -13543.9 -36.9972 22506.4
 12 06 2015  22 11  -14.4842 17974.7 -13543.4 -36.9968 22505.8
 12 06 2015  22 12  -14.4840 17974.6 -13543.1 -36.9964 22505.6
 12 06 2015  22 13  -14.4845 17974.3 -13543.0 -36.9967 22505.3
 12 06 2015  22 14  -14.4845 17974.2 -13543.3 -36.9974 22505.4
 12 06 2015  22 15  -14.4848 17973.9 -13543.7 -36.9986 22505.4
 12 06 2015  22 16  -14.4852 17973.8 -13543.1 -36.9976 22505.0
 12 06 2015  22 17  -14.4854 17974.0 -13543.8 -36.9987 22505.6
 12 06 2015  22 18  -14.4860 17974.1 -13543.8 -36.9985 22505.6
 12 06 2015  22 19  -14.4862 17974.3 -13544.1 -36.9990 22506.0
 12 06 2015  22 20  -14.4862 17974.6 -13543.1 -36.9964 22505.5
 12 06 2015  22 21  -14.4858 17974.8 -13543.2 -36.9964 22505.8
 12 06 2015  22 22  -14.4855 17974.9 -13543.4 -36.9965 22506.0
 12 06 2015  22 23  -14.4850 17975.0 -13543.8 -36.9973 22506.3
 12 06 2015  22 24  -14.4846 17974.9 -13543.7 -36.9971 22506.1
 12 06 2015  22 25  -14.4847 17974.5 -13543.6 -36.9975 22505.8
 12 06 2015  22 26  -14.4845 17974.5 -13543.9 -36.9983 22506.0
 12 06 2015  22 27  -14.4845 17974.5 -13543.5 -36.9973 22505.7
 12 06 2015  22 28  -14.4845 17974.6 -13543.6 -36.9975 22505.9
 12 06 2015  22 29  -14.4844 17974.6 -13544.1 -36.9985 22506.2
 12 06 2015  22 30  -14.4847 17974.3 -13543.5 -36.9977 22505.6
 12 06 2015  22 31  -14.4846 17974.1 -13543.8 -36.9985 22505.7
 12 06 2015  22 32  -14.4843 17974.1 -13543.6 -36.9982 22505.5
 12 06 2015  22 33  -14.4842 17974.0 -13543.6 -36.9984 22505.4
 12 06 2015  22 34  -14.4842 17973.8 -13543.5 -36.9984 22505.1
 12 06 2015  22 35  -14.4840 17973.6 -13543.6 -36.9989 22505.1
 12 06 2015  22 36  -14.4843 17973.4 -13543.6 -36.9992 22504.9
 12 06 2015  22 37  -14.4847 17973.4 -13543.5 -36.9991 22504.8
 12 06 2015  22 38  -14.4849 17973.5 -13543.8 -36.9996 22505.1
 12 06 2015  22 39  -14.4854 17973.9 -13543.7 -36.9988 22505.4
 12 06 2015  22 40  -14.4859 17974.1 -13543.9 -36.9986 22505.7
 12 06 2015  22 41  -14.4863 17974.1 -13543.6 -36.9981 22505.5
 12 06 2015  22 42  -14.4861 17974.5 -13543.5 -36.9973 22505.7
 12 06 2015  22 43  -14.4855 17974.7 -13544.0 -36.9981 22506.3
 12 06 2015  22 44  -14.4849 17975.1 -13544.2 -36.9978 22506.6
 12 06 2015  22 45  -14.4850 17975.2 -13543.5 -36.9964 22506.3
 12 06 2015  22 46  -14.4848 17975.2 -13543.5 -36.9963 22506.3
 12 06 2015  22 47  -14.4852 17974.8 -13543.1 -36.9960 22505.7
 12 06 2015  22 48  -14.4855 17974.5 -13542.8 -36.9959 22505.3
 12 06 2015  22 49  -14.4856 17974.3 -13543.1 -36.9969 22505.3
 12 06 2015  22 50  -14.4854 17974.2 -13543.3 -36.9973 22505.4
 12 06 2015  22 51  -14.4855 17974.0 -13543.2 -36.9973 22505.2
 12 06 2015  22 52  -14.4857 17973.9 -13543.3 -36.9978 22505.2
 12 06 2015  22 53  -14.4858 17974.0 -13543.2 -36.9975 22505.1
 12 06 2015  22 54  -14.4859 17974.3 -13543.3 -36.9971 22505.5
 12 06 2015  22 55  -14.4859 17974.6 -13543.2 -36.9966 22505.7
 12 06 2015  22 56  -14.4856 17974.8 -13543.4 -36.9966 22506.0
 12 06 2015  22 57  -14.4853 17974.8 -13543.6 -36.9970 22506.1
 12 06 2015  22 58  -14.4852 17975.0 -13543.0 -36.9955 22505.9
 12 06 2015  22 59  -14.4852 17975.2 -13543.1 -36.9955 22506.1
 12 06 2015  23 00  -14.4854 17975.4 -13543.1 -36.9950 22506.3
 12 06 2015  23 01  -14.4851 17975.6 -13543.1 -36.9949 22506.4
 12 06 2015  23 02  -14.4847 17975.7 -13543.1 -36.9946 22506.5
 12 06 2015  23 03  -14.4843 17975.7 -13543.0 -36.9946 22506.4
 12 06 2015  23 04  -14.4841 17975.6 -13542.9 -36.9944 22506.3
 12 06 2015  23 05  -14.4840 17975.5 -13542.9 -36.9946 22506.2
 12 06 2015  23 06  -14.4837 17975.6 -13543.2 -36.9951 22506.5
 12 06 2015  23 07  -14.4835 17975.7 -13543.0 -36.9945 22506.4
 12 06 2015  23 08  -14.4836 17975.7 -13542.7 -36.9940 22506.2
 12 06 2015  23 09  -14.4832 17975.9 -13542.8 -36.9939 22506.5
 12 06 2015  23 10  -14.4827 17976.0 -13543.0 -36.9942 22506.6
 12 06 2015  23 11  -14.4823 17975.9 -13542.9 -36.9941 22506.5
 12 06 2015  23 12  -14.4820 17975.6 -13543.3 -36.9953 22506.6
 12 06 2015  23 13  -14.4822 17975.0 -13542.6 -36.9947 22505.5
 12 06 2015  23 14  -14.4826 17973.7 -13543.2 -36.9980 22504.9
 12 06 2015  23 15  -14.4835 17972.5 -13542.9 -36.9992 22503.8
 12 06 2015  23 16  -14.4842 17972.0 -13542.3 -36.9987 22503.0
 12 06 2015  23 17  -14.4842 17972.0 -13542.6 -36.9994 22503.3
 12 06 2015  23 18  -14.4840 17972.1 -13542.9 -36.9999 22503.5
 12 06 2015  23 19  -14.4835 17972.1 -13543.4 -37.0009 22503.8
 12 06 2015  23 20  -14.4836 17972.1 -13542.9 -36.9997 22503.5
 12 06 2015  23 21  -14.4837 17972.1 -13543.3 -37.0005 22503.7
 12 06 2015  23 22  -14.4841 17971.9 -13544.1 -37.0025 22504.0
 12 06 2015  23 23  -14.4847 17971.7 -13543.7 -37.0021 22503.7
 12 06 2015  23 24  -14.4853 17971.4 -13543.7 -37.0024 22503.4
 12 06 2015  23 25  -14.4858 17971.3 -13542.8 -37.0009 22502.8
 12 06 2015  23 26  -14.4857 17971.1 -13543.4 -37.0023 22503.0
 12 06 2015  23 27  -14.4858 17971.0 -13543.0 -37.0018 22502.7
 12 06 2015  23 28  -14.4860 17970.8 -13543.8 -37.0036 22502.9
 12 06 2015  23 29  -14.4869 17970.6 -13543.4 -37.0030 22502.6
 12 06 2015  23 30  -14.4870 17970.8 -13543.6 -37.0031 22502.9
 12 06 2015  23 31  -14.4870 17971.0 -13543.8 -37.0034 22503.1
 12 06 2015  23 32  -14.4871 17971.1 -13543.6 -37.0028 22503.1
 12 06 2015  23 33  -14.4872 17971.2 -13543.3 -37.0021 22503.0
 12 06 2015  23 34  -14.4876 17971.1 -13544.1 -37.0038 22503.4
 12 06 2015  23 35  -14.4879 17970.8 -13543.7 -37.0034 22503.0
 12 06 2015  23 36  -14.4884 17970.7 -13543.3 -37.0027 22502.6
 12 06 2015  23 37  -14.4883 17970.7 -13543.9 -37.0039 22502.9
 12 06 2015  23 38  -14.4879 17970.9 -13543.5 -37.0029 22502.9
 12 06 2015  23 39  -14.4877 17971.0 -13543.5 -37.0026 22503.0
 12 06 2015  23 40  -14.4875 17971.0 -13543.9 -37.0036 22503.2
 12 06 2015  23 41  -14.4873 17970.9 -13543.8 -37.0035 22503.1
 12 06 2015  23 42  -14.4876 17970.7 -13543.8 -37.0039 22502.9
 12 06 2015  23 43  -14.4878 17970.6 -13543.8 -37.0040 22502.8
 12 06 2015  23 44  -14.4886 17970.1 -13543.2 -37.0036 22502.1
 12 06 2015  23 45  -14.4884 17969.7 -13543.9 -37.0056 22502.2
 12 06 2015  23 46  -14.4884 17969.5 -13543.5 -37.0050 22501.8
 12 06 2015  23 47  -14.4882 17969.5 -13543.7 -37.0056 22501.9
 12 06 2015  23 48  -14.4884 17969.2 -13543.5 -37.0054 22501.5
 12 06 2015  23 49  -14.4885 17969.0 -13544.2 -37.0072 22501.8
 12 06 2015  23 50  -14.4890 17968.9 -13544.0 -37.0070 22501.5
 12 06 2015  23 51  -14.4890 17968.9 -13543.6 -37.0061 22501.4
 12 06 2015  23 52  -14.4884 17969.0 -13544.2 -37.0072 22501.7
 12 06 2015  23 53  -14.4880 17969.0 -13544.3 -37.0074 22501.9
 12 06 2015  23 54  -14.4880 17969.0 -13543.9 -37.0064 22501.6
 12 06 2015  23 55  -14.4881 17969.0 -13544.1 -37.0070 22501.7
 12 06 2015  23 56  -14.4885 17968.7 -13544.2 -37.0076 22501.6
 12 06 2015  23 57  -14.4886 17968.5 -13544.0 -37.0077 22501.3
 12 06 2015  23 58  -14.4887 17968.4 -13543.4 -37.0065 22500.9
